# normalized_q E1[eV] E2 E3 E4 E5 E6 E7 E8 E9 E10 E11 E12
0.000000 0.932300 6.105000 6.105000 6.761600 6.761600 6.983600 11.070400 13.511200 17.457500 17.998300 17.998300 19.967500
0.010147 0.932700 6.103500 6.104600 6.759900 6.761600 6.983400 11.072100 13.512600 17.456200 17.995500 17.999300 19.968000
0.020119 0.933800 6.098700 6.103200 6.754700 6.761500 6.983100 11.077300 13.517000 17.452200 17.987200 18.002100 19.969100
0.030266 0.935700 6.090800 6.100900 6.746100 6.761400 6.982500 11.085900 13.524300 17.445500 17.973500 18.006800 19.969700
0.040413 0.938400 6.079700 6.097700 6.734200 6.761200 6.981600 11.097800 13.534500 17.436100 17.954500 18.013300 19.966400
0.050560 0.941800 6.065500 6.093600 6.719000 6.760900 6.980500 11.113100 13.547400 17.424100 17.930400 18.021800 19.957200
0.060532 0.946000 6.048200 6.088600 6.700600 6.760600 6.979100 11.131600 13.563200 17.409500 17.901600 18.032100 19.944200
0.070679 0.951000 6.027900 6.082800 6.679200 6.760100 6.977400 11.153100 13.581700 17.392200 17.868200 18.044200 19.928300
0.080826 0.956700 6.004600 6.076100 6.654800 6.759600 6.975500 11.177700 13.602800 17.372200 17.830600 18.058200 19.910000
0.090973 0.963200 5.978400 6.068600 6.627700 6.758900 6.973200 11.205000 13.626500 17.349700 17.789200 18.074100 19.889300
0.100945 0.970500 5.949200 6.060300 6.597900 6.758200 6.970600 11.235100 13.652600 17.324500 17.744300 18.091700 19.866400
0.111092 0.978500 5.917300 6.051200 6.565700 6.757300 6.967600 11.267700 13.681100 17.296700 17.696300 18.111100 19.841700
0.121239 0.987300 5.882700 6.041400 6.531100 6.756200 6.964400 11.302800 13.711900 17.266400 17.645500 18.132400 19.815200
0.131386 0.996800 5.845300 6.030800 6.494300 6.755000 6.960800 11.340100 13.744800 17.233500 17.592400 18.155400 19.787100
0.141358 1.007100 5.805500 6.019600 6.455400 6.753600 6.956900 11.379400 13.779700 17.198000 17.537300 18.180200 19.757800
0.151505 1.018100 5.763100 6.007700 6.414600 6.752000 6.952700 11.420800 13.816400 17.160000 17.480700 18.206700 19.727500
0.161652 1.029900 5.718400 5.995200 6.372100 6.750200 6.948100 11.463800 13.854900 17.119300 17.422900 18.234900 19.696500
0.171624 1.042400 5.671300 5.982100 6.327900 6.748300 6.943200 11.508600 13.894800 17.076000 17.364300 18.264700 19.664800
0.181770 1.055700 5.622100 5.968500 6.282100 6.746000 6.938000 11.554800 13.936200 17.029900 17.305400 18.296300 19.632900
0.191917 1.069700 5.570800 5.954300 6.235000 6.743600 6.932400 11.602300 13.978700 16.981100 17.246700 18.329400 19.600800
0.202064 1.084500 5.517600 5.939500 6.186600 6.741000 6.926400 11.651000 14.022300 16.929400 17.188600 18.364100 19.568900
0.212036 1.100000 5.462500 5.924400 6.137000 6.738100 6.920100 11.700700 14.066600 16.874900 17.131600 18.400300 19.537100
0.222183 1.116200 5.405600 5.908700 6.086300 6.734900 6.913300 11.751400 14.111500 16.817500 17.076000 18.438100 19.505700
0.232330 1.133200 5.347100 5.892700 6.034700 6.731500 6.906300 11.802800 14.156700 16.757300 17.022100 18.477300 19.474800
0.242477 1.150900 5.287000 5.876200 5.982100 6.727900 6.898800 11.854900 14.202000 16.694500 16.970200 18.517800 19.444500
0.252449 1.169300 5.225500 5.859400 5.928700 6.724000 6.890900 11.907600 14.247100 16.629300 16.920500 18.559600 19.414900
0.262596 1.188400 5.162700 5.842300 5.874600 6.719900 6.882600 11.960600 14.291700 16.562000 16.873200 18.602700 19.386100
0.272743 1.208300 5.098600 5.819800 5.824800 6.715500 6.874000 12.013900 14.335500 16.492900 16.828500 18.646900 19.358100
0.282890 1.228900 5.033500 5.764400 5.807100 6.710800 6.864800 12.067400 14.378100 16.422300 16.786500 18.692000 19.330900
0.292862 1.250100 4.967300 5.708400 5.789100 6.705900 6.855300 12.121000 14.419200 16.350400 16.747400 18.738000 19.304600
0.303009 1.272100 4.900200 5.651900 5.770800 6.700800 6.845300 12.174500 14.458500 16.277500 16.711600 18.784500 19.279200
0.313156 1.294800 4.832300 5.595100 5.752400 6.695400 6.834900 12.227900 14.495400 16.203800 16.679300 18.831400 19.254700
0.323303 1.318200 4.763600 5.537800 5.733800 6.689800 6.824000 12.281000 14.529800 16.129500 16.650900 18.878200 19.231100
0.333275 1.342300 4.694200 5.480200 5.715000 6.684000 6.812700 12.333700 14.561000 16.054800 16.626600 18.924300 19.208100
0.343422 1.367000 4.624400 5.422400 5.696100 6.677900 6.800900 12.385900 14.588800 15.979900 16.606700 18.968900 19.160000
0.353569 1.392500 4.554000 5.364300 5.677000 6.671600 6.788600 12.437500 14.612800 15.904900 16.591600 19.010900 19.102800
0.363541 1.418600 4.483200 5.306000 5.657900 6.665200 6.775800 12.488300 14.632800 15.830100 16.581400 19.046500 19.048500
0.373688 1.445400 4.412100 5.247600 5.638600 6.658500 6.762400 12.538400 14.648400 15.755600 16.576400 18.991200 19.079200
0.383835 1.472800 4.340700 5.189100 5.619400 6.651600 6.748600 12.587400 14.659400 15.681600 16.576600 18.937000 19.100600
0.393982 1.500900 4.269200 5.130500 5.600000 6.644600 6.734200 12.635400 14.665900 15.608300 16.581900 18.884200 19.092100
0.403954 1.529700 4.197500 5.072000 5.580700 6.637300 6.719300 12.682100 14.667700 15.535900 16.592300 18.832700 19.075800
0.414101 1.559000 4.125800 5.013400 5.561400 6.630000 6.703900 12.727500 14.665000 15.464800 16.607400 18.782800 19.060300
0.424248 1.589100 4.054100 4.954900 5.542100 6.622400 6.687900 12.771400 14.657700 15.395100 16.627000 18.734700 19.045700
0.434395 1.619700 3.982500 4.896500 5.522800 6.614800 6.671300 12.813700 14.646100 15.327200 16.650700 18.688400 19.032000
0.444367 1.651000 3.911000 4.838200 5.503600 6.607000 6.654100 12.854100 14.630100 15.261600 16.677900 18.644100 19.014100
0.454514 1.682800 3.839700 4.780100 5.484400 6.599100 6.636400 12.892600 14.609900 15.198600 16.708300 18.602100 18.980200
0.464661 1.715300 3.768700 4.722200 5.465400 6.591100 6.618100 12.929000 14.585600 15.138800 16.741100 18.562500 18.944700
0.474808 1.748300 3.698000 4.664600 5.446400 6.583000 6.599200 12.963200 14.557100 15.082700 16.775800 18.525600 18.908100
0.484780 1.782000 3.627700 4.607200 5.427500 6.574800 6.579600 12.994900 14.524400 15.030800 16.811900 18.491500 18.870900
0.494927 1.816100 3.557800 4.550100 5.408800 6.559500 6.566500 13.024000 14.487500 14.983600 16.848700 18.460600 18.833400
0.505073 1.850900 3.488300 4.493400 5.390300 6.538700 6.558200 13.050500 14.446700 14.941400 16.885700 18.433100 18.795800
0.515045 1.886200 3.419400 4.437000 5.371900 6.517300 6.549800 13.074100 14.402200 14.904400 16.922200 18.409300 18.758400
0.525192 1.922000 3.351000 4.381100 5.353600 6.495200 6.541400 13.094800 14.354300 14.872600 16.957600 18.389500 18.721200
0.535339 1.958400 3.283300 4.325600 5.335600 6.472600 6.533000 13.112400 14.303600 14.845800 16.991500 18.374000 18.684200
0.545486 1.995200 3.216200 4.270500 5.317800 6.449200 6.524600 13.127000 14.250600 14.823700 17.023300 18.363100 18.647700
0.555458 2.032500 3.149900 4.216000 5.300100 6.425300 6.516100 13.138500 14.195900 14.805900 17.052500 18.357100 18.611700
0.565605 2.070300 3.084300 4.162000 5.282700 6.400700 6.507700 13.146900 14.139900 14.792200 17.078800 18.356000 18.576200
0.575752 2.108600 3.019500 4.108600 5.265600 6.375500 6.499300 13.152300 14.083200 14.782200 17.101800 18.360000 18.541200
0.585899 2.147200 2.955600 4.055700 5.248700 6.349600 6.490900 13.154800 14.026000 14.775600 17.121400 18.369100 18.506800
0.595871 2.186300 2.892500 4.003500 5.232000 6.323100 6.482600 13.154400 13.968700 14.772000 17.137700 18.383100 18.473100
0.606018 2.225800 2.830500 3.952000 5.215600 6.295900 6.474300 13.151400 13.911600 14.771100 17.150500 18.401800 18.439900
0.616165 2.265600 2.769400 3.901200 5.199500 6.268200 6.466000 13.146000 13.854900 14.772700 17.160200 18.407500 18.424800
0.626312 2.305700 2.709400 3.851100 5.183700 6.239800 6.457900 13.138200 13.798700 14.776400 17.166900 18.375800 18.451600
0.636284 2.346000 2.650700 3.801800 5.168200 6.210800 6.449800 13.128500 13.743300 14.782000 17.171100 18.344800 18.481700
0.646431 2.386200 2.593300 3.753300 5.153000 6.181200 6.441900 13.116900 13.688700 14.789100 17.173100 18.314500 18.514600
0.656578 2.425500 2.538400 3.705600 5.138100 6.151100 6.434000 13.103700 13.635000 14.797600 17.173200 18.284900 18.549500
0.666725 2.452700 2.496900 3.658700 5.123600 6.120300 6.426200 13.089100 13.582400 14.807100 17.171800 18.256100 18.585900
0.676697 2.418700 2.518200 3.612800 5.109300 6.089100 6.418600 13.073300 13.530900 14.817500 17.169200 18.228000 18.623100
0.686844 2.367800 2.557600 3.567900 5.095500 6.057300 6.411100 13.056600 13.480500 14.828500 17.165700 18.200700 18.660300
0.696991 2.316600 2.598900 3.523900 5.081900 6.025000 6.403700 13.039000 13.431500 14.840000 17.161700 18.174200 18.696600
0.706963 2.266200 2.640700 3.480900 5.068800 5.992300 6.396500 13.020900 13.383700 14.851800 17.157300 18.148500 18.731300
0.717110 2.217000 2.682700 3.439100 5.056000 5.959100 6.389500 13.002200 13.337200 14.863700 17.152700 18.123600 18.763500
0.727257 2.169100 2.724800 3.398300 5.043500 5.925500 6.382600 12.983300 13.292100 14.875600 17.148100 18.099500 18.792400
0.737404 2.122600 2.766900 3.358800 5.031500 5.891500 6.375800 12.964200 13.248400 14.887300 17.143600 18.076200 18.817700
0.747376 2.077500 2.808800 3.320500 5.019800 5.857300 6.369300 12.945000 13.206200 14.898800 17.139300 18.053700 18.839400
0.757523 2.033800 2.850500 3.283600 5.008500 5.822700 6.363000 12.925900 13.165400 14.910100 17.135300 18.032000 18.857900
0.767670 1.991600 2.891600 3.248300 4.997700 5.788000 6.356800 12.906900 13.126100 14.920900 17.131700 18.011100 18.873900
0.777817 1.950900 2.931800 3.215000 4.987200 5.753000 6.350800 12.888300 13.088300 14.931300 17.128500 17.991100 18.887800
0.787789 1.911700 2.970300 3.184300 4.977100 5.718000 6.345100 12.869900 13.052100 14.941300 17.125700 17.971900 18.900200
0.797936 1.874100 3.005200 3.158200 4.967500 5.683000 6.339500 12.852000 13.017400 14.950700 17.123400 17.953500 18.911500
0.808083 1.838100 3.031000 3.142100 4.958200 5.648000 6.334200 12.834500 12.984200 14.959600 17.121500 17.936000 18.921900
0.818230 1.803700 3.037400 3.146200 4.949400 5.613200 6.329100 12.817600 12.952600 14.967900 17.120000 17.919300 18.931700
0.828202 1.771000 3.024800 3.170200 4.941000 5.578600 6.324200 12.801300 12.922600 14.975700 17.118900 17.903400 18.941100
0.838348 1.739900 3.004400 3.202700 4.933100 5.544400 6.319600 12.785600 12.894200 14.982900 17.118200 17.888400 18.949900
0.848495 1.710500 2.981800 3.237900 4.925600 5.510600 6.315200 12.770600 12.867300 14.989600 17.117800 17.874200 18.958400
0.858467 1.682800 2.959200 3.273600 4.918500 5.477400 6.311100 12.756400 12.842100 14.995700 17.117800 17.860900 18.966600
0.868614 1.656800 2.937300 3.309100 4.911800 5.445000 6.307100 12.742900 12.818500 15.001300 17.118000 17.848500 18.974300
0.878761 1.632500 2.916500 3.343800 4.905600 5.413500 6.303500 12.730300 12.796500 15.006400 17.118400 17.836800 18.981700
0.888908 1.610000 2.896900 3.377400 4.899900 5.383000 6.300100 12.718400 12.776100 15.011000 17.119000 17.826100 18.988800
0.898880 1.589200 2.878700 3.409600 4.894600 5.353800 6.297000 12.707500 12.757300 15.015100 17.119800 17.816200 18.995400
0.909027 1.570200 2.861900 3.440100 4.889700 5.326000 6.294100 12.697400 12.740100 15.018800 17.120600 17.807100 19.001600
0.919174 1.553000 2.846500 3.468800 4.885400 5.299900 6.291500 12.688300 12.724600 15.022100 17.121500 17.798900 19.007300
0.929321 1.537500 2.832800 3.495300 4.881400 5.275600 6.289100 12.680100 12.710600 15.024900 17.122500 17.791600 19.012500
0.939293 1.523900 2.820500 3.519500 4.877900 5.253500 6.287100 12.672800 12.698300 15.027400 17.123400 17.785100 19.017200
0.949440 1.512100 2.809900 3.541100 4.874900 5.233700 6.285300 12.666500 12.687600 15.029500 17.124200 17.779500 19.021400
0.959587 1.502000 2.800900 3.559800 4.872400 5.216500 6.283700 12.661200 12.678500 15.031200 17.125000 17.774800 19.025000
0.969734 1.493800 2.793400 3.575500 4.870300 5.202000 6.282500 12.656900 12.671000 15.032600 17.125700 17.770900 19.027900
0.979706 1.487400 2.787700 3.587900 4.868700 5.190600 6.281500 12.653600 12.665100 15.033700 17.126200 17.767900 19.030200
0.989853 1.482900 2.783500 3.596900 4.867500 5.182300 6.280800 12.651300 12.660900 15.034500 17.126600 17.765700 19.031900
1.000000 1.480100 2.781100 3.602400 4.866800 5.177200 6.280400 12.649900 12.658300 15.034900 17.126900 17.764400 19.032900
