# L[nm] kappa[W/m/K]
0.00000000 0.00000000
0.10000000 0.00000684
0.20000000 0.00004634
0.30000000 0.00013932
0.40000000 0.00038233
0.50000000 0.00094575
0.60000000 0.00151313
0.70000000 0.00265268
0.80000000 0.00471987
0.90000000 0.00587354
1.00000000 0.00722933
1.10000000 0.00858997
1.20000000 0.01089020
1.30000000 0.01345390
1.40000000 0.01543760
1.50000000 0.01948340
1.60000000 0.02349880
1.70000000 0.02824650
1.80000000 0.03263760
1.90000000 0.03782010
2.00000000 0.04047430
2.10000000 0.04377050
2.20000000 0.04768090
2.30000000 0.05129230
2.40000000 0.05552120
2.50000000 0.05983170
2.60000000 0.06605730
2.70000000 0.07049590
2.80000000 0.07371030
2.90000000 0.07737590
3.00000000 0.08230120
3.10000000 0.08960560
3.20000000 0.09730030
3.30000000 0.10392000
3.40000000 0.10810100
3.50000000 0.11580500
3.60000000 0.12286100
3.70000000 0.13141600
3.80000000 0.14150700
3.90000000 0.15137000
4.00000000 0.15989000
4.10000000 0.16944400
4.20000000 0.18388600
4.30000000 0.19523400
4.40000000 0.21155400
4.50000000 0.22884600
4.60000000 0.24654600
4.70000000 0.26989300
4.80000000 0.28617100
4.90000000 0.30631600
5.00000000 0.32481700
5.10000000 0.34537200
5.20000000 0.37104000
5.30000000 0.38827800
5.40000000 0.41578400
5.50000000 0.43165500
5.60000000 0.45023000
5.70000000 0.47769800
5.80000000 0.50264600
5.90000000 0.51881000
6.00000000 0.54263900
6.10000000 0.55845500
6.20000000 0.57106400
6.30000000 0.59276800
6.40000000 0.61213700
6.50000000 0.63054300
6.60000000 0.65347000
6.70000000 0.67036300
6.80000000 0.68475100
6.90000000 0.70805500
7.00000000 0.72692000
7.10000000 0.74221000
7.20000000 0.75590200
7.30000000 0.76952000
7.40000000 0.77902400
7.50000000 0.79228300
7.60000000 0.80925200
7.70000000 0.82008700
7.80000000 0.83369800
7.90000000 0.85079200
8.00000000 0.86752500
8.10000000 0.87878900
8.20000000 0.89753700
8.30000000 0.91116700
8.40000000 0.92192000
8.50000000 0.93470000
8.60000000 0.94880400
8.70000000 0.95958200
8.80000000 0.97173900
8.90000000 0.98463900
9.00000000 1.00170000
9.10000000 1.00822000
9.20000000 1.02055000
9.30000000 1.02899000
9.40000000 1.04633000
9.50000000 1.05830000
9.60000000 1.06389000
9.70000000 1.07526000
9.80000000 1.08356000
9.90000000 1.09636000
10.00000000 1.10181000
10.10000000 1.12451000
10.20000000 1.13198000
10.30000000 1.14119000
10.40000000 1.15109000
10.50000000 1.16587000
10.60000000 1.17116000
10.70000000 1.18091000
10.80000000 1.18500000
10.90000000 1.19803000
11.00000000 1.20672000
11.10000000 1.21550000
11.20000000 1.22767000
11.30000000 1.24095000
11.40000000 1.25008000
11.50000000 1.25973000
11.60000000 1.27024000
11.70000000 1.27434000
11.80000000 1.28334000
11.90000000 1.28976000
12.00000000 1.29607000
12.10000000 1.30476000
12.20000000 1.30560000
12.30000000 1.31279000
12.40000000 1.32093000
12.50000000 1.32811000
12.60000000 1.34037000
12.70000000 1.35511000
12.80000000 1.36696000
12.90000000 1.37489000
13.00000000 1.38020000
13.10000000 1.38608000
13.20000000 1.40741000
13.30000000 1.41695000
13.40000000 1.42220000
13.50000000 1.42767000
13.60000000 1.43005000
13.70000000 1.43911000
13.80000000 1.45321000
13.90000000 1.46429000
14.00000000 1.48017000
14.10000000 1.49571000
14.20000000 1.50772000
14.30000000 1.52050000
14.40000000 1.53885000
14.50000000 1.54696000
14.60000000 1.55161000
14.70000000 1.56129000
14.80000000 1.56509000
14.90000000 1.58057000
15.00000000 1.58776000
15.10000000 1.59202000
15.20000000 1.60328000
15.30000000 1.62079000
15.40000000 1.62443000
15.50000000 1.63240000
15.60000000 1.63979000
15.70000000 1.63979000
15.80000000 1.64483000
15.90000000 1.65442000
16.00000000 1.66068000
16.10000000 1.66918000
16.20000000 1.67122000
16.30000000 1.67781000
16.40000000 1.69126000
16.50000000 1.69824000
16.60000000 1.70400000
16.70000000 1.70554000
16.80000000 1.72117000
16.90000000 1.73645000
17.00000000 1.74346000
17.10000000 1.74854000
17.20000000 1.75285000
17.30000000 1.75837000
17.40000000 1.76313000
17.50000000 1.76498000
17.60000000 1.76956000
17.70000000 1.77241000
17.80000000 1.78186000
17.90000000 1.78663000
18.00000000 1.78946000
18.10000000 1.79407000
18.20000000 1.80122000
18.30000000 1.80586000
18.40000000 1.81307000
18.50000000 1.82582000
18.60000000 1.83401000
18.70000000 1.84964000
18.80000000 1.85602000
18.90000000 1.85694000
19.00000000 1.87532000
19.10000000 1.87758000
19.20000000 1.88367000
19.30000000 1.88740000
19.40000000 1.88740000
19.50000000 1.89387000
19.60000000 1.89667000
19.70000000 1.91881000
19.80000000 1.93618000
19.90000000 1.94217000
20.00000000 1.94726000
20.10000000 1.94863000
20.20000000 1.95006000
20.30000000 1.95715000
20.40000000 1.96125000
20.50000000 1.96823000
20.60000000 1.97187000
20.70000000 1.97187000
20.80000000 1.97187000
20.90000000 1.97381000
21.00000000 1.97599000
21.10000000 1.98639000
21.20000000 1.99755000
21.30000000 1.99981000
21.40000000 2.00566000
21.50000000 2.00566000
21.60000000 2.01213000
21.70000000 2.01716000
21.80000000 2.01756000
21.90000000 2.01772000
22.00000000 2.02639000
22.10000000 2.03108000
22.20000000 2.03537000
22.30000000 2.04159000
22.40000000 2.04809000
22.50000000 2.05380000
22.60000000 2.06303000
22.70000000 2.06720000
22.80000000 2.07618000
22.90000000 2.08015000
23.00000000 2.08290000
23.10000000 2.09786000
23.20000000 2.10416000
23.30000000 2.10823000
23.40000000 2.11495000
23.50000000 2.11976000
23.60000000 2.12413000
23.70000000 2.12869000
23.80000000 2.13329000
23.90000000 2.13654000
24.00000000 2.13654000
24.10000000 2.14657000
24.20000000 2.15128000
24.30000000 2.15128000
24.40000000 2.15407000
24.50000000 2.16241000
24.60000000 2.16241000
24.70000000 2.16451000
24.80000000 2.17067000
24.90000000 2.17495000
25.00000000 2.17573000
25.10000000 2.18224000
25.20000000 2.18473000
25.30000000 2.18473000
25.40000000 2.18829000
25.50000000 2.19074000
25.60000000 2.19074000
25.70000000 2.19522000
25.80000000 2.19522000
25.90000000 2.19757000
26.00000000 2.20491000
26.10000000 2.20753000
26.20000000 2.20999000
26.30000000 2.21037000
26.40000000 2.21550000
26.50000000 2.21948000
26.60000000 2.22103000
26.70000000 2.22217000
26.80000000 2.23195000
26.90000000 2.23686000
27.00000000 2.24432000
27.10000000 2.24870000
27.20000000 2.24870000
27.30000000 2.24926000
27.40000000 2.25226000
27.50000000 2.25226000
27.60000000 2.25858000
27.70000000 2.25858000
27.80000000 2.26614000
27.90000000 2.26614000
28.00000000 2.27145000
28.10000000 2.28405000
28.20000000 2.28680000
28.30000000 2.29114000
28.40000000 2.29404000
28.50000000 2.29404000
28.60000000 2.30043000
28.70000000 2.30043000
28.80000000 2.30043000
28.90000000 2.30319000
29.00000000 2.31142000
29.10000000 2.31519000
29.20000000 2.31653000
29.30000000 2.32274000
29.40000000 2.32564000
29.50000000 2.32564000
29.60000000 2.32758000
29.70000000 2.33474000
29.80000000 2.33636000
29.90000000 2.33636000
30.00000000 2.34375000
30.10000000 2.34375000
30.20000000 2.34685000
30.30000000 2.34685000
30.40000000 2.34817000
30.50000000 2.35283000
30.60000000 2.35412000
30.70000000 2.35717000
30.80000000 2.35717000
30.90000000 2.36025000
31.00000000 2.36025000
31.10000000 2.36025000
31.20000000 2.36316000
31.30000000 2.36554000
31.40000000 2.36650000
31.50000000 2.36650000
31.60000000 2.36650000
31.70000000 2.36650000
31.80000000 2.36868000
31.90000000 2.37426000
32.00000000 2.38058000
32.10000000 2.38058000
32.20000000 2.38205000
32.30000000 2.38862000
32.40000000 2.39134000
32.50000000 2.39134000
32.60000000 2.39134000
32.70000000 2.39654000
32.80000000 2.40114000
32.90000000 2.40368000
33.00000000 2.40811000
33.10000000 2.41288000
33.20000000 2.41288000
33.30000000 2.41288000
33.40000000 2.41376000
33.50000000 2.42082000
33.60000000 2.42138000
33.70000000 2.42660000
33.80000000 2.42660000
33.90000000 2.42762000
34.00000000 2.43174000
34.10000000 2.43446000
34.20000000 2.43621000
34.30000000 2.43942000
34.40000000 2.44361000
34.50000000 2.44713000
34.60000000 2.44888000
34.70000000 2.46050000
34.80000000 2.46301000
34.90000000 2.46616000
35.00000000 2.46616000
35.10000000 2.46616000
35.20000000 2.46786000
35.30000000 2.47057000
35.40000000 2.47057000
35.50000000 2.47057000
35.60000000 2.47057000
35.70000000 2.47057000
35.80000000 2.47247000
35.90000000 2.47247000
36.00000000 2.47834000
36.10000000 2.48040000
36.20000000 2.48127000
36.30000000 2.48295000
36.40000000 2.48384000
36.50000000 2.48805000
36.60000000 2.49462000
36.70000000 2.49462000
36.80000000 2.49462000
36.90000000 2.49520000
37.00000000 2.50283000
37.10000000 2.50504000
37.20000000 2.50504000
37.30000000 2.51585000
37.40000000 2.52094000
37.50000000 2.52310000
37.60000000 2.52310000
37.70000000 2.52552000
37.80000000 2.52552000
37.90000000 2.52631000
38.00000000 2.52764000
38.10000000 2.52924000
38.20000000 2.52924000
38.30000000 2.53127000
38.40000000 2.53127000
38.50000000 2.53127000
38.60000000 2.53189000
38.70000000 2.53329000
38.80000000 2.53329000
38.90000000 2.53329000
39.00000000 2.53329000
39.10000000 2.53528000
39.20000000 2.53528000
39.30000000 2.53528000
39.40000000 2.53528000
39.50000000 2.53865000
39.60000000 2.53865000
39.70000000 2.53865000
39.80000000 2.53865000
39.90000000 2.54064000
40.00000000 2.54064000
40.10000000 2.54064000
40.20000000 2.54064000
40.30000000 2.54139000
40.40000000 2.54139000
40.50000000 2.54270000
40.60000000 2.54270000
40.70000000 2.54380000
40.80000000 2.55124000
40.90000000 2.55278000
41.00000000 2.55687000
41.10000000 2.55687000
41.20000000 2.56195000
41.30000000 2.56195000
41.40000000 2.56566000
41.50000000 2.56761000
41.60000000 2.56761000
41.70000000 2.56761000
41.80000000 2.57136000
41.90000000 2.57136000
42.00000000 2.57314000
42.10000000 2.57641000
42.20000000 2.57726000
42.30000000 2.57952000
42.40000000 2.57952000
42.50000000 2.58506000
42.60000000 2.58506000
42.70000000 2.58847000
42.80000000 2.58847000
42.90000000 2.59005000
43.00000000 2.59188000
43.10000000 2.59462000
43.20000000 2.59462000
43.30000000 2.59462000
43.40000000 2.59775000
43.50000000 2.59775000
43.60000000 2.59775000
43.70000000 2.59775000
43.80000000 2.59775000
43.90000000 2.59775000
44.00000000 2.60090000
44.10000000 2.60090000
44.20000000 2.60090000
44.30000000 2.60090000
44.40000000 2.60090000
44.50000000 2.60090000
44.60000000 2.60090000
44.70000000 2.60090000
44.80000000 2.60090000
44.90000000 2.60090000
45.00000000 2.60090000
45.10000000 2.60090000
45.20000000 2.60090000
45.30000000 2.60251000
45.40000000 2.60433000
45.50000000 2.60433000
45.60000000 2.60433000
45.70000000 2.60433000
45.80000000 2.60433000
45.90000000 2.60433000
46.00000000 2.60433000
46.10000000 2.60433000
46.20000000 2.60433000
46.30000000 2.60433000
46.40000000 2.60433000
46.50000000 2.60433000
46.60000000 2.60433000
46.70000000 2.60681000
46.80000000 2.60893000
46.90000000 2.60893000
47.00000000 2.60893000
47.10000000 2.61056000
47.20000000 2.61056000
47.30000000 2.61056000
47.40000000 2.61256000
47.50000000 2.61256000
47.60000000 2.61256000
47.70000000 2.61256000
47.80000000 2.61256000
47.90000000 2.61256000
48.00000000 2.61256000
48.10000000 2.61256000
48.20000000 2.61256000
48.30000000 2.61256000
48.40000000 2.61256000
48.50000000 2.61445000
48.60000000 2.61619000
48.70000000 2.61970000
48.80000000 2.61970000
48.90000000 2.61970000
49.00000000 2.61970000
49.10000000 2.61970000
49.20000000 2.61970000
49.30000000 2.61970000
49.40000000 2.61970000
49.50000000 2.61970000
49.60000000 2.61970000
49.70000000 2.61970000
49.80000000 2.61970000
49.90000000 2.61970000
50.00000000 2.61970000
50.10000000 2.61970000
50.20000000 2.62179000
50.30000000 2.62179000
50.40000000 2.62179000
50.50000000 2.62301000
50.60000000 2.62301000
50.70000000 2.62301000
50.80000000 2.62400000
50.90000000 2.62832000
51.00000000 2.62832000
51.10000000 2.62832000
51.20000000 2.63013000
51.30000000 2.63295000
51.40000000 2.63295000
51.50000000 2.63551000
51.60000000 2.63551000
51.70000000 2.63551000
51.80000000 2.63551000
51.90000000 2.63551000
52.00000000 2.63551000
52.10000000 2.63551000
52.20000000 2.63551000
52.30000000 2.63551000
52.40000000 2.63551000
52.50000000 2.63551000
52.60000000 2.63668000
52.70000000 2.63945000
52.80000000 2.63945000
52.90000000 2.63945000
53.00000000 2.63945000
53.10000000 2.63945000
53.20000000 2.64125000
53.30000000 2.64125000
53.40000000 2.64125000
53.50000000 2.64125000
53.60000000 2.64125000
53.70000000 2.64125000
53.80000000 2.64125000
53.90000000 2.64125000
54.00000000 2.64125000
54.10000000 2.64125000
54.20000000 2.64125000
54.30000000 2.64125000
54.40000000 2.64125000
54.50000000 2.64125000
54.60000000 2.64125000
54.70000000 2.64125000
54.80000000 2.64125000
54.90000000 2.64125000
55.00000000 2.64125000
55.10000000 2.64125000
55.20000000 2.64125000
55.30000000 2.64125000
55.40000000 2.64125000
55.50000000 2.64125000
55.60000000 2.64125000
55.70000000 2.64125000
55.80000000 2.64125000
55.90000000 2.64125000
56.00000000 2.64125000
56.10000000 2.64125000
56.20000000 2.64125000
56.30000000 2.64125000
56.40000000 2.64125000
56.50000000 2.64125000
56.60000000 2.64125000
56.70000000 2.64125000
56.80000000 2.64125000
56.90000000 2.64436000
57.00000000 2.64436000
57.10000000 2.64436000
57.20000000 2.64436000
57.30000000 2.64436000
57.40000000 2.64436000
57.50000000 2.64436000
57.60000000 2.64436000
57.70000000 2.64436000
57.80000000 2.64436000
57.90000000 2.64436000
58.00000000 2.64436000
58.10000000 2.64436000
58.20000000 2.64436000
58.30000000 2.64436000
58.40000000 2.64436000
58.50000000 2.64436000
58.60000000 2.64436000
58.70000000 2.64436000
58.80000000 2.64436000
58.90000000 2.64436000
59.00000000 2.64436000
59.10000000 2.64436000
59.20000000 2.64436000
59.30000000 2.64436000
59.40000000 2.64436000
59.50000000 2.64436000
59.60000000 2.64436000
59.70000000 2.64634000
59.80000000 2.64634000
59.90000000 2.64634000
60.00000000 2.64634000
60.10000000 2.64634000
60.20000000 2.64634000
60.30000000 2.64634000
60.40000000 2.64634000
60.50000000 2.64634000
60.60000000 2.64634000
60.70000000 2.64634000
60.80000000 2.64634000
60.90000000 2.64634000
61.00000000 2.64803000
61.10000000 2.64803000
61.20000000 2.64803000
61.30000000 2.64803000
61.40000000 2.64803000
61.50000000 2.64803000
61.60000000 2.64803000
61.70000000 2.64803000
61.80000000 2.64803000
61.90000000 2.64803000
62.00000000 2.64803000
62.10000000 2.64803000
62.20000000 2.64803000
62.30000000 2.64803000
62.40000000 2.64803000
62.50000000 2.64803000
62.60000000 2.64803000
62.70000000 2.64803000
62.80000000 2.64803000
62.90000000 2.64803000
63.00000000 2.64803000
63.10000000 2.64803000
63.20000000 2.64803000
63.30000000 2.64803000
63.40000000 2.64803000
63.50000000 2.64803000
63.60000000 2.64803000
63.70000000 2.64803000
63.80000000 2.64803000
63.90000000 2.64803000
64.00000000 2.64803000
64.10000000 2.64803000
64.20000000 2.64803000
64.30000000 2.64803000
64.40000000 2.64803000
64.50000000 2.64803000
64.60000000 2.64803000
64.70000000 2.64803000
64.80000000 2.64803000
64.90000000 2.64803000
65.00000000 2.64803000
65.10000000 2.64803000
65.20000000 2.64803000
65.30000000 2.64803000
65.40000000 2.64803000
65.50000000 2.64803000
65.60000000 2.64803000
65.70000000 2.64803000
65.80000000 2.65193000
65.90000000 2.65193000
66.00000000 2.65193000
66.10000000 2.65376000
66.20000000 2.65376000
66.30000000 2.65376000
66.40000000 2.65376000
66.50000000 2.65376000
66.60000000 2.65376000
66.70000000 2.65376000
66.80000000 2.65376000
66.90000000 2.65376000
67.00000000 2.65376000
67.10000000 2.65376000
67.20000000 2.65376000
67.30000000 2.65376000
67.40000000 2.65376000
67.50000000 2.65376000
67.60000000 2.65376000
67.70000000 2.65376000
67.80000000 2.65376000
67.90000000 2.65745000
68.00000000 2.65745000
68.10000000 2.65745000
68.20000000 2.66104000
68.30000000 2.66104000
68.40000000 2.66104000
68.50000000 2.66104000
68.60000000 2.66104000
68.70000000 2.66104000
68.80000000 2.66104000
68.90000000 2.66104000
69.00000000 2.66104000
69.10000000 2.66104000
69.20000000 2.66104000
69.30000000 2.66104000
69.40000000 2.66104000
69.50000000 2.66104000
69.60000000 2.66104000
69.70000000 2.66104000
69.80000000 2.66357000
69.90000000 2.66357000
70.00000000 2.66357000
70.10000000 2.66357000
70.20000000 2.66357000
70.30000000 2.66538000
70.40000000 2.66538000
70.50000000 2.66538000
70.60000000 2.66538000
70.70000000 2.66538000
70.80000000 2.66538000
70.90000000 2.66538000
71.00000000 2.66538000
71.10000000 2.66538000
71.20000000 2.66538000
71.30000000 2.66538000
71.40000000 2.66538000
71.50000000 2.66538000
71.60000000 2.66538000
71.70000000 2.66538000
71.80000000 2.66538000
71.90000000 2.66538000
72.00000000 2.66538000
72.10000000 2.66538000
72.20000000 2.66538000
72.30000000 2.66538000
72.40000000 2.66538000
72.50000000 2.66538000
72.60000000 2.66538000
72.70000000 2.66538000
72.80000000 2.66538000
72.90000000 2.66538000
73.00000000 2.66538000
73.10000000 2.66538000
73.20000000 2.66538000
73.30000000 2.66538000
73.40000000 2.66538000
73.50000000 2.66538000
73.60000000 2.66538000
73.70000000 2.66538000
73.80000000 2.66538000
73.90000000 2.66538000
74.00000000 2.66538000
74.10000000 2.66538000
74.20000000 2.66538000
74.30000000 2.66538000
74.40000000 2.66538000
74.50000000 2.66538000
74.60000000 2.66538000
74.70000000 2.66538000
74.80000000 2.66538000
74.90000000 2.66538000
75.00000000 2.66538000
75.10000000 2.66538000
75.20000000 2.66538000
75.30000000 2.66538000
75.40000000 2.66538000
75.50000000 2.66538000
75.60000000 2.66538000
75.70000000 2.66538000
75.80000000 2.66538000
75.90000000 2.66538000
76.00000000 2.66538000
76.10000000 2.66959000
76.20000000 2.66959000
76.30000000 2.66959000
76.40000000 2.66959000
76.50000000 2.66959000
76.60000000 2.66959000
76.70000000 2.66959000
76.80000000 2.66959000
76.90000000 2.66959000
77.00000000 2.66959000
77.10000000 2.66959000
77.20000000 2.66959000
77.30000000 2.66959000
77.40000000 2.66959000
77.50000000 2.66959000
77.60000000 2.66959000
77.70000000 2.66959000
77.80000000 2.66959000
77.90000000 2.66959000
78.00000000 2.66959000
78.10000000 2.66959000
78.20000000 2.66959000
78.30000000 2.66959000
78.40000000 2.66959000
78.50000000 2.66959000
78.60000000 2.66959000
78.70000000 2.66959000
78.80000000 2.66959000
78.90000000 2.66959000
79.00000000 2.66959000
79.10000000 2.66959000
79.20000000 2.66959000
79.30000000 2.66959000
79.40000000 2.66959000
79.50000000 2.66959000
79.60000000 2.66959000
79.70000000 2.66959000
79.80000000 2.66959000
79.90000000 2.67180000
80.00000000 2.67180000
80.10000000 2.67180000
80.20000000 2.67180000
80.30000000 2.67180000
80.40000000 2.67180000
80.50000000 2.67180000
80.60000000 2.67180000
80.70000000 2.67180000
80.80000000 2.67180000
80.90000000 2.67180000
81.00000000 2.67180000
81.10000000 2.67180000
81.20000000 2.67180000
81.30000000 2.67180000
81.40000000 2.67180000
81.50000000 2.67180000
81.60000000 2.67180000
81.70000000 2.67180000
81.80000000 2.67180000
81.90000000 2.67180000
82.00000000 2.67180000
82.10000000 2.67180000
82.20000000 2.67180000
82.30000000 2.67180000
82.40000000 2.67180000
82.50000000 2.67180000
82.60000000 2.67180000
82.70000000 2.67180000
82.80000000 2.67180000
82.90000000 2.67180000
83.00000000 2.67180000
83.10000000 2.67180000
83.20000000 2.67180000
83.30000000 2.67180000
83.40000000 2.67180000
83.50000000 2.67180000
83.60000000 2.67180000
83.70000000 2.67180000
83.80000000 2.67180000
83.90000000 2.67180000
84.00000000 2.67180000
84.10000000 2.67180000
84.20000000 2.67180000
84.30000000 2.67180000
84.40000000 2.67180000
84.50000000 2.67180000
84.60000000 2.67180000
84.70000000 2.67180000
84.80000000 2.67180000
84.90000000 2.67180000
85.00000000 2.67180000
85.10000000 2.67180000
85.20000000 2.67180000
85.30000000 2.67180000
85.40000000 2.67180000
85.50000000 2.67180000
85.60000000 2.67180000
85.70000000 2.67180000
85.80000000 2.67180000
85.90000000 2.67180000
86.00000000 2.67180000
86.10000000 2.67180000
86.20000000 2.67180000
86.30000000 2.67180000
86.40000000 2.67180000
86.50000000 2.67180000
86.60000000 2.67180000
86.70000000 2.67180000
86.80000000 2.67180000
86.90000000 2.67180000
87.00000000 2.67180000
87.10000000 2.67180000
87.20000000 2.67180000
87.30000000 2.67180000
87.40000000 2.67180000
87.50000000 2.67180000
87.60000000 2.67180000
87.70000000 2.67180000
87.80000000 2.67180000
87.90000000 2.67180000
88.00000000 2.67180000
88.10000000 2.67180000
88.20000000 2.67180000
88.30000000 2.67180000
88.40000000 2.67180000
88.50000000 2.67180000
88.60000000 2.67180000
88.70000000 2.67180000
88.80000000 2.67180000
88.90000000 2.67180000
89.00000000 2.67180000
89.10000000 2.67180000
89.20000000 2.67180000
89.30000000 2.67180000
89.40000000 2.67180000
89.50000000 2.67180000
89.60000000 2.67180000
89.70000000 2.67180000
89.80000000 2.67180000
89.90000000 2.67180000
90.00000000 2.67180000
90.10000000 2.67180000
90.20000000 2.67180000
90.30000000 2.67180000
90.40000000 2.67180000
90.50000000 2.67180000
90.60000000 2.67180000
90.70000000 2.67180000
90.80000000 2.67180000
90.90000000 2.67180000
91.00000000 2.67180000
91.10000000 2.67180000
91.20000000 2.67180000
91.30000000 2.67180000
91.40000000 2.67180000
91.50000000 2.67180000
91.60000000 2.67180000
91.70000000 2.67180000
91.80000000 2.67180000
91.90000000 2.67180000
92.00000000 2.67180000
92.10000000 2.67180000
92.20000000 2.67180000
92.30000000 2.67180000
92.40000000 2.67180000
92.50000000 2.67180000
92.60000000 2.67180000
92.70000000 2.67180000
92.80000000 2.67180000
92.90000000 2.67180000
93.00000000 2.67180000
93.10000000 2.67180000
93.20000000 2.67180000
93.30000000 2.67180000
93.40000000 2.67180000
93.50000000 2.67689000
93.60000000 2.67689000
93.70000000 2.67689000
93.80000000 2.67689000
93.90000000 2.67689000
94.00000000 2.67689000
94.10000000 2.67689000
94.20000000 2.67689000
94.30000000 2.67689000
94.40000000 2.67689000
94.50000000 2.67689000
94.60000000 2.67689000
94.70000000 2.67689000
94.80000000 2.67689000
94.90000000 2.67689000
95.00000000 2.67689000
95.10000000 2.67689000
95.20000000 2.67689000
95.30000000 2.67689000
95.40000000 2.67689000
95.50000000 2.67689000
95.60000000 2.67689000
95.70000000 2.67689000
95.80000000 2.67689000
95.90000000 2.67689000
96.00000000 2.67689000
96.10000000 2.67689000
96.20000000 2.67689000
96.30000000 2.67689000
96.40000000 2.67689000
96.50000000 2.67689000
96.60000000 2.67689000
96.70000000 2.67689000
96.80000000 2.67689000
96.90000000 2.67689000
97.00000000 2.67689000
97.10000000 2.67689000
97.20000000 2.67689000
97.30000000 2.67689000
97.40000000 2.67689000
97.50000000 2.67689000
97.60000000 2.67689000
97.70000000 2.67689000
97.80000000 2.67689000
97.90000000 2.67689000
98.00000000 2.67689000
98.10000000 2.67689000
98.20000000 2.67689000
98.30000000 2.67689000
98.40000000 2.67689000
98.50000000 2.67689000
98.60000000 2.67689000
98.70000000 2.67689000
98.80000000 2.67689000
98.90000000 2.67689000
99.00000000 2.67689000
99.10000000 2.67689000
99.20000000 2.67689000
99.30000000 2.67689000
99.40000000 2.67689000
99.50000000 2.67689000
99.60000000 2.67689000
99.70000000 2.67689000
99.80000000 2.67689000
99.90000000 2.67689000
100.00000000 2.67689000
100.10000000 2.67689000
100.20000000 2.67689000
100.30000000 2.67689000
100.40000000 2.67689000
100.50000000 2.67689000
100.60000000 2.67689000
100.70000000 2.67689000
100.80000000 2.67689000
100.90000000 2.67689000
101.00000000 2.67689000
101.10000000 2.67689000
101.20000000 2.67689000
101.30000000 2.67689000
101.40000000 2.67689000
101.50000000 2.67689000
101.60000000 2.67689000
101.70000000 2.67689000
101.80000000 2.67689000
101.90000000 2.67689000
102.00000000 2.67689000
102.10000000 2.67689000
102.20000000 2.67689000
102.30000000 2.67689000
102.40000000 2.67689000
102.50000000 2.67689000
102.60000000 2.67689000
102.70000000 2.67689000
102.80000000 2.67689000
102.90000000 2.67689000
103.00000000 2.67689000
103.10000000 2.67689000
103.20000000 2.67689000
103.30000000 2.67689000
103.40000000 2.67689000
103.50000000 2.67689000
103.60000000 2.67689000
103.70000000 2.67689000
103.80000000 2.67689000
103.90000000 2.67689000
104.00000000 2.67689000
104.10000000 2.67689000
104.20000000 2.67689000
104.30000000 2.67689000
104.40000000 2.67689000
104.50000000 2.67689000
104.60000000 2.67689000
104.70000000 2.67689000
104.80000000 2.67689000
104.90000000 2.67689000
105.00000000 2.67689000
105.10000000 2.67689000
105.20000000 2.67689000
105.30000000 2.67689000
105.40000000 2.67689000
105.50000000 2.67689000
105.60000000 2.67689000
105.70000000 2.67689000
105.80000000 2.67689000
105.90000000 2.67689000
106.00000000 2.67689000
106.10000000 2.67974000
106.20000000 2.67974000
106.30000000 2.67974000
106.40000000 2.67974000
106.50000000 2.67974000
106.60000000 2.67974000
106.70000000 2.67974000
106.80000000 2.67974000
106.90000000 2.67974000
107.00000000 2.67974000
107.10000000 2.67974000
107.20000000 2.67974000
107.30000000 2.67974000
107.40000000 2.67974000
107.50000000 2.67974000
107.60000000 2.67974000
107.70000000 2.67974000
107.80000000 2.67974000
107.90000000 2.67974000
108.00000000 2.67974000
108.10000000 2.67974000
108.20000000 2.67974000
108.30000000 2.67974000
108.40000000 2.67974000
108.50000000 2.67974000
108.60000000 2.67974000
108.70000000 2.67974000
108.80000000 2.67974000
108.90000000 2.67974000
109.00000000 2.67974000
109.10000000 2.67974000
109.20000000 2.67974000
109.30000000 2.67974000
109.40000000 2.67974000
109.50000000 2.67974000
109.60000000 2.67974000
109.70000000 2.67974000
109.80000000 2.67974000
109.90000000 2.67974000
110.00000000 2.67974000
110.10000000 2.67974000
110.20000000 2.67974000
110.30000000 2.67974000
110.40000000 2.67974000
110.50000000 2.67974000
110.60000000 2.67974000
110.70000000 2.67974000
110.80000000 2.67974000
110.90000000 2.67974000
111.00000000 2.67974000
111.10000000 2.67974000
111.20000000 2.67974000
111.30000000 2.67974000
111.40000000 2.67974000
111.50000000 2.67974000
111.60000000 2.67974000
111.70000000 2.67974000
111.80000000 2.67974000
111.90000000 2.67974000
112.00000000 2.67974000
112.10000000 2.67974000
112.20000000 2.67974000
112.30000000 2.67974000
112.40000000 2.67974000
112.50000000 2.67974000
112.60000000 2.67974000
112.70000000 2.67974000
112.80000000 2.67974000
112.90000000 2.67974000
113.00000000 2.67974000
113.10000000 2.67974000
113.20000000 2.67974000
113.30000000 2.67974000
113.40000000 2.67974000
113.50000000 2.67974000
113.60000000 2.67974000
113.70000000 2.67974000
113.80000000 2.67974000
113.90000000 2.67974000
114.00000000 2.67974000
114.10000000 2.67974000
114.20000000 2.67974000
114.30000000 2.67974000
114.40000000 2.67974000
114.50000000 2.67974000
114.60000000 2.67974000
114.70000000 2.67974000
114.80000000 2.67974000
114.90000000 2.67974000
115.00000000 2.67974000
115.10000000 2.67974000
115.20000000 2.67974000
115.30000000 2.67974000
115.40000000 2.67974000
115.50000000 2.67974000
115.60000000 2.67974000
115.70000000 2.67974000
115.80000000 2.67974000
115.90000000 2.67974000
116.00000000 2.67974000
116.10000000 2.67974000
116.20000000 2.67974000
116.30000000 2.67974000
116.40000000 2.67974000
116.50000000 2.67974000
116.60000000 2.67974000
116.70000000 2.67974000
116.80000000 2.67974000
116.90000000 2.67974000
117.00000000 2.67974000
117.10000000 2.67974000
117.20000000 2.67974000
117.30000000 2.67974000
117.40000000 2.67974000
117.50000000 2.67974000
117.60000000 2.67974000
117.70000000 2.67974000
117.80000000 2.67974000
117.90000000 2.67974000
118.00000000 2.67974000
118.10000000 2.67974000
118.20000000 2.67974000
118.30000000 2.67974000
118.40000000 2.67974000
118.50000000 2.67974000
118.60000000 2.67974000
118.70000000 2.67974000
118.80000000 2.67974000
118.90000000 2.67974000
119.00000000 2.67974000
119.10000000 2.67974000
119.20000000 2.67974000
119.30000000 2.67974000
119.40000000 2.67974000
119.50000000 2.67974000
119.60000000 2.67974000
119.70000000 2.67974000
119.80000000 2.67974000
119.90000000 2.67974000
120.00000000 2.67974000
120.10000000 2.67974000
120.20000000 2.67974000
120.30000000 2.67974000
120.40000000 2.67974000
120.50000000 2.67974000
120.60000000 2.67974000
120.70000000 2.67974000
120.80000000 2.67974000
120.90000000 2.67974000
121.00000000 2.67974000
121.10000000 2.67974000
121.20000000 2.67974000
121.30000000 2.67974000
121.40000000 2.67974000
121.50000000 2.67974000
121.60000000 2.67974000
121.70000000 2.67974000
121.80000000 2.67974000
121.90000000 2.67974000
122.00000000 2.67974000
122.10000000 2.67974000
122.20000000 2.67974000
122.30000000 2.67974000
122.40000000 2.67974000
122.50000000 2.67974000
122.60000000 2.67974000
122.70000000 2.67974000
122.80000000 2.67974000
122.90000000 2.67974000
123.00000000 2.67974000
123.10000000 2.67974000
123.20000000 2.67974000
123.30000000 2.67974000
123.40000000 2.67974000
123.50000000 2.67974000
123.60000000 2.67974000
123.70000000 2.67974000
123.80000000 2.67974000
123.90000000 2.67974000
124.00000000 2.67974000
124.10000000 2.67974000
124.20000000 2.67974000
124.30000000 2.67974000
124.40000000 2.67974000
124.50000000 2.67974000
124.60000000 2.67974000
124.70000000 2.67974000
124.80000000 2.67974000
124.90000000 2.67974000
125.00000000 2.67974000
125.10000000 2.67974000
125.20000000 2.67974000
125.30000000 2.67974000
125.40000000 2.67974000
125.50000000 2.67974000
125.60000000 2.67974000
125.70000000 2.67974000
125.80000000 2.67974000
125.90000000 2.67974000
126.00000000 2.67974000
126.10000000 2.67974000
126.20000000 2.67974000
126.30000000 2.67974000
126.40000000 2.67974000
126.50000000 2.67974000
126.60000000 2.67974000
126.70000000 2.67974000
126.80000000 2.67974000
126.90000000 2.67974000
127.00000000 2.67974000
127.10000000 2.67974000
127.20000000 2.67974000
127.30000000 2.67974000
127.40000000 2.67974000
127.50000000 2.67974000
127.60000000 2.67974000
127.70000000 2.67974000
127.80000000 2.67974000
127.90000000 2.67974000
128.00000000 2.67974000
128.10000000 2.67974000
128.20000000 2.67974000
128.30000000 2.67974000
128.40000000 2.67974000
128.50000000 2.67974000
128.60000000 2.67974000
128.70000000 2.67974000
128.80000000 2.67974000
128.90000000 2.67974000
129.00000000 2.67974000
129.10000000 2.67974000
129.20000000 2.67974000
129.30000000 2.67974000
129.40000000 2.67974000
129.50000000 2.67974000
129.60000000 2.67974000
129.70000000 2.67974000
129.80000000 2.67974000
129.90000000 2.67974000
130.00000000 2.67974000
130.10000000 2.67974000
130.20000000 2.67974000
130.30000000 2.67974000
130.40000000 2.67974000
130.50000000 2.67974000
130.60000000 2.67974000
130.70000000 2.67974000
130.80000000 2.67974000
130.90000000 2.67974000
131.00000000 2.67974000
131.10000000 2.67974000
131.20000000 2.67974000
131.30000000 2.67974000
131.40000000 2.67974000
131.50000000 2.67974000
131.60000000 2.67974000
131.70000000 2.67974000
131.80000000 2.67974000
131.90000000 2.67974000
132.00000000 2.67974000
132.10000000 2.67974000
132.20000000 2.67974000
132.30000000 2.67974000
132.40000000 2.67974000
132.50000000 2.67974000
132.60000000 2.67974000
132.70000000 2.67974000
132.80000000 2.67974000
132.90000000 2.67974000
133.00000000 2.67974000
133.10000000 2.67974000
133.20000000 2.67974000
133.30000000 2.67974000
133.40000000 2.67974000
133.50000000 2.67974000
133.60000000 2.67974000
133.70000000 2.67974000
133.80000000 2.67974000
133.90000000 2.67974000
134.00000000 2.67974000
134.10000000 2.67974000
134.20000000 2.67974000
134.30000000 2.67974000
134.40000000 2.67974000
134.50000000 2.67974000
134.60000000 2.67974000
134.70000000 2.67974000
134.80000000 2.67974000
134.90000000 2.67974000
135.00000000 2.67974000
135.10000000 2.67974000
135.20000000 2.67974000
135.30000000 2.67974000
135.40000000 2.67974000
135.50000000 2.67974000
135.60000000 2.67974000
135.70000000 2.67974000
135.80000000 2.67974000
135.90000000 2.67974000
136.00000000 2.67974000
136.10000000 2.67974000
136.20000000 2.67974000
136.30000000 2.67974000
136.40000000 2.67974000
136.50000000 2.67974000
136.60000000 2.67974000
136.70000000 2.67974000
136.80000000 2.67974000
136.90000000 2.67974000
137.00000000 2.67974000
137.10000000 2.67974000
137.20000000 2.67974000
137.30000000 2.67974000
137.40000000 2.67974000
137.50000000 2.67974000
137.60000000 2.67974000
137.70000000 2.67974000
137.80000000 2.67974000
137.90000000 2.67974000
138.00000000 2.67974000
138.10000000 2.67974000
138.20000000 2.67974000
138.30000000 2.67974000
138.40000000 2.67974000
138.50000000 2.67974000
138.60000000 2.67974000
138.70000000 2.67974000
138.80000000 2.67974000
138.90000000 2.67974000
139.00000000 2.67974000
139.10000000 2.67974000
139.20000000 2.67974000
139.30000000 2.67974000
139.40000000 2.67974000
139.50000000 2.67974000
139.60000000 2.67974000
139.70000000 2.67974000
139.80000000 2.67974000
139.90000000 2.67974000
140.00000000 2.67974000
140.10000000 2.67974000
140.20000000 2.67974000
140.30000000 2.67974000
140.40000000 2.67974000
140.50000000 2.67974000
140.60000000 2.67974000
140.70000000 2.67974000
140.80000000 2.67974000
140.90000000 2.67974000
141.00000000 2.67974000
141.10000000 2.67974000
141.20000000 2.67974000
141.30000000 2.67974000
141.40000000 2.67974000
141.50000000 2.67974000
141.60000000 2.67974000
141.70000000 2.67974000
141.80000000 2.67974000
141.90000000 2.67974000
142.00000000 2.67974000
142.10000000 2.67974000
142.20000000 2.67974000
142.30000000 2.67974000
142.40000000 2.67974000
142.50000000 2.67974000
142.60000000 2.67974000
142.70000000 2.67974000
142.80000000 2.67974000
142.90000000 2.67974000
143.00000000 2.67974000
143.10000000 2.67974000
143.20000000 2.67974000
143.30000000 2.67974000
143.40000000 2.67974000
143.50000000 2.67974000
143.60000000 2.67974000
143.70000000 2.67974000
143.80000000 2.67974000
143.90000000 2.67974000
144.00000000 2.67974000
144.10000000 2.67974000
144.20000000 2.67974000
144.30000000 2.67974000
144.40000000 2.67974000
144.50000000 2.67974000
144.60000000 2.67974000
144.70000000 2.67974000
144.80000000 2.67974000
144.90000000 2.67974000
145.00000000 2.67974000
145.10000000 2.67974000
145.20000000 2.67974000
145.30000000 2.67974000
145.40000000 2.67974000
145.50000000 2.67974000
145.60000000 2.67974000
145.70000000 2.67974000
145.80000000 2.67974000
145.90000000 2.67974000
146.00000000 2.67974000
146.10000000 2.67974000
146.20000000 2.67974000
146.30000000 2.67974000
146.40000000 2.67974000
146.50000000 2.67974000
146.60000000 2.67974000
146.70000000 2.67974000
146.80000000 2.67974000
146.90000000 2.67974000
147.00000000 2.67974000
147.10000000 2.67974000
147.20000000 2.67974000
147.30000000 2.67974000
147.40000000 2.67974000
147.50000000 2.67974000
147.60000000 2.67974000
147.70000000 2.67974000
147.80000000 2.67974000
147.90000000 2.67974000
148.00000000 2.67974000
148.10000000 2.67974000
148.20000000 2.67974000
148.30000000 2.67974000
148.40000000 2.67974000
148.50000000 2.67974000
148.60000000 2.67974000
148.70000000 2.67974000
148.80000000 2.67974000
148.90000000 2.67974000
149.00000000 2.67974000
149.10000000 2.67974000
149.20000000 2.68525000
149.30000000 2.68525000
149.40000000 2.68525000
149.50000000 2.68525000
149.60000000 2.68525000
149.70000000 2.68525000
149.80000000 2.68525000
149.90000000 2.68525000
150.00000000 2.68525000
150.10000000 2.68525000
150.20000000 2.68525000
150.30000000 2.68525000
150.40000000 2.68525000
150.50000000 2.68525000
150.60000000 2.68525000
150.70000000 2.68525000
150.80000000 2.68525000
150.90000000 2.68525000
151.00000000 2.68525000
151.10000000 2.68525000
151.20000000 2.68525000
151.30000000 2.68525000
151.40000000 2.68525000
151.50000000 2.68525000
151.60000000 2.68525000
151.70000000 2.68525000
151.80000000 2.68525000
151.90000000 2.68525000
152.00000000 2.68525000
152.10000000 2.68525000
152.20000000 2.68525000
152.30000000 2.68525000
152.40000000 2.68525000
152.50000000 2.68525000
152.60000000 2.68525000
152.70000000 2.68525000
152.80000000 2.68525000
152.90000000 2.68525000
153.00000000 2.68525000
153.10000000 2.68525000
153.20000000 2.68525000
153.30000000 2.68525000
153.40000000 2.68525000
153.50000000 2.68525000
153.60000000 2.68525000
153.70000000 2.68525000
153.80000000 2.68525000
153.90000000 2.68525000
154.00000000 2.68525000
154.10000000 2.68525000
154.20000000 2.68525000
154.30000000 2.68525000
154.40000000 2.68525000
154.50000000 2.68525000
154.60000000 2.68525000
154.70000000 2.68525000
154.80000000 2.68525000
154.90000000 2.68525000
155.00000000 2.68525000
155.10000000 2.68525000
155.20000000 2.68525000
155.30000000 2.68525000
155.40000000 2.68525000
155.50000000 2.68525000
155.60000000 2.68525000
155.70000000 2.68525000
155.80000000 2.68525000
155.90000000 2.68525000
156.00000000 2.68525000
156.10000000 2.68525000
156.20000000 2.68525000
156.30000000 2.68525000
156.40000000 2.68525000
156.50000000 2.68525000
156.60000000 2.68525000
156.70000000 2.68525000
156.80000000 2.68525000
156.90000000 2.68525000
157.00000000 2.68525000
157.10000000 2.68525000
157.20000000 2.68525000
157.30000000 2.68525000
157.40000000 2.68525000
157.50000000 2.68525000
157.60000000 2.68525000
157.70000000 2.68525000
157.80000000 2.68525000
157.90000000 2.68525000
158.00000000 2.68525000
158.10000000 2.68525000
158.20000000 2.68525000
158.30000000 2.68525000
158.40000000 2.68525000
158.50000000 2.68525000
158.60000000 2.68525000
158.70000000 2.68525000
158.80000000 2.68525000
158.90000000 2.68525000
159.00000000 2.68525000
159.10000000 2.68525000
159.20000000 2.68525000
159.30000000 2.68525000
159.40000000 2.68525000
159.50000000 2.68525000
159.60000000 2.68525000
159.70000000 2.68525000
159.80000000 2.68525000
159.90000000 2.68525000
160.00000000 2.68525000
160.10000000 2.68525000
160.20000000 2.68525000
160.30000000 2.68525000
160.40000000 2.68525000
160.50000000 2.68525000
160.60000000 2.68525000
160.70000000 2.68525000
160.80000000 2.68525000
160.90000000 2.68525000
161.00000000 2.68525000
161.10000000 2.68525000
161.20000000 2.68525000
161.30000000 2.68525000
161.40000000 2.68525000
161.50000000 2.68525000
161.60000000 2.68525000
161.70000000 2.68525000
161.80000000 2.68525000
161.90000000 2.68525000
162.00000000 2.68525000
162.10000000 2.68525000
162.20000000 2.68525000
162.30000000 2.68525000
162.40000000 2.68525000
162.50000000 2.68525000
162.60000000 2.68525000
162.70000000 2.68525000
162.80000000 2.68525000
162.90000000 2.68525000
163.00000000 2.68525000
163.10000000 2.68525000
163.20000000 2.68525000
163.30000000 2.68525000
163.40000000 2.68525000
163.50000000 2.68525000
163.60000000 2.68525000
163.70000000 2.68525000
163.80000000 2.68525000
163.90000000 2.68525000
164.00000000 2.68525000
164.10000000 2.68525000
164.20000000 2.68525000
164.30000000 2.68525000
164.40000000 2.68525000
164.50000000 2.68525000
164.60000000 2.68525000
164.70000000 2.68525000
164.80000000 2.68525000
164.90000000 2.68525000
165.00000000 2.68525000
165.10000000 2.68525000
165.20000000 2.68525000
165.30000000 2.68525000
165.40000000 2.68525000
165.50000000 2.68525000
165.60000000 2.68525000
165.70000000 2.68525000
165.80000000 2.68525000
165.90000000 2.68525000
166.00000000 2.68525000
166.10000000 2.68525000
166.20000000 2.68525000
166.30000000 2.68525000
166.40000000 2.68525000
166.50000000 2.68525000
166.60000000 2.68525000
166.70000000 2.68525000
166.80000000 2.68525000
166.90000000 2.68525000
167.00000000 2.68987000
167.10000000 2.68987000
167.20000000 2.68987000
167.30000000 2.68987000
167.40000000 2.68987000
167.50000000 2.68987000
167.60000000 2.68987000
167.70000000 2.68987000
167.80000000 2.68987000
167.90000000 2.68987000
168.00000000 2.68987000
168.10000000 2.68987000
168.20000000 2.68987000
168.30000000 2.68987000
168.40000000 2.68987000
168.50000000 2.68987000
168.60000000 2.68987000
168.70000000 2.68987000
168.80000000 2.68987000
168.90000000 2.68987000
169.00000000 2.68987000
169.10000000 2.68987000
169.20000000 2.68987000
169.30000000 2.68987000
169.40000000 2.68987000
169.50000000 2.68987000
169.60000000 2.68987000
169.70000000 2.68987000
169.80000000 2.68987000
169.90000000 2.68987000
170.00000000 2.68987000
170.10000000 2.68987000
170.20000000 2.68987000
170.30000000 2.68987000
170.40000000 2.68987000
170.50000000 2.68987000
170.60000000 2.68987000
170.70000000 2.68987000
170.80000000 2.68987000
170.90000000 2.68987000
171.00000000 2.68987000
171.10000000 2.68987000
171.20000000 2.68987000
171.30000000 2.68987000
171.40000000 2.68987000
171.50000000 2.68987000
171.60000000 2.68987000
171.70000000 2.68987000
171.80000000 2.68987000
171.90000000 2.68987000
172.00000000 2.68987000
172.10000000 2.68987000
172.20000000 2.68987000
172.30000000 2.68987000
172.40000000 2.68987000
172.50000000 2.68987000
172.60000000 2.68987000
172.70000000 2.68987000
172.80000000 2.68987000
172.90000000 2.68987000
173.00000000 2.68987000
173.10000000 2.68987000
173.20000000 2.68987000
173.30000000 2.68987000
173.40000000 2.68987000
173.50000000 2.68987000
173.60000000 2.68987000
173.70000000 2.68987000
173.80000000 2.68987000
173.90000000 2.68987000
174.00000000 2.68987000
174.10000000 2.68987000
174.20000000 2.68987000
174.30000000 2.68987000
174.40000000 2.68987000
174.50000000 2.68987000
174.60000000 2.68987000
174.70000000 2.68987000
174.80000000 2.68987000
174.90000000 2.68987000
175.00000000 2.68987000
175.10000000 2.68987000
175.20000000 2.68987000
175.30000000 2.68987000
175.40000000 2.68987000
175.50000000 2.68987000
175.60000000 2.68987000
175.70000000 2.68987000
175.80000000 2.68987000
175.90000000 2.68987000
176.00000000 2.68987000
176.10000000 2.68987000
176.20000000 2.68987000
176.30000000 2.68987000
176.40000000 2.68987000
176.50000000 2.68987000
176.60000000 2.68987000
176.70000000 2.68987000
176.80000000 2.68987000
176.90000000 2.68987000
177.00000000 2.68987000
177.10000000 2.68987000
177.20000000 2.68987000
177.30000000 2.68987000
177.40000000 2.68987000
177.50000000 2.68987000
177.60000000 2.68987000
177.70000000 2.68987000
177.80000000 2.68987000
177.90000000 2.68987000
178.00000000 2.68987000
178.10000000 2.68987000
178.20000000 2.68987000
178.30000000 2.68987000
178.40000000 2.68987000
178.50000000 2.68987000
178.60000000 2.68987000
178.70000000 2.68987000
178.80000000 2.68987000
178.90000000 2.68987000
179.00000000 2.68987000
179.10000000 2.68987000
179.20000000 2.68987000
179.30000000 2.68987000
179.40000000 2.68987000
179.50000000 2.68987000
179.60000000 2.68987000
179.70000000 2.68987000
179.80000000 2.68987000
179.90000000 2.68987000
180.00000000 2.68987000
180.10000000 2.68987000
180.20000000 2.68987000
180.30000000 2.68987000
180.40000000 2.68987000
180.50000000 2.68987000
180.60000000 2.68987000
180.70000000 2.68987000
180.80000000 2.68987000
180.90000000 2.68987000
181.00000000 2.68987000
181.10000000 2.68987000
181.20000000 2.68987000
181.30000000 2.68987000
181.40000000 2.68987000
181.50000000 2.68987000
181.60000000 2.68987000
181.70000000 2.68987000
181.80000000 2.68987000
181.90000000 2.68987000
182.00000000 2.68987000
182.10000000 2.68987000
182.20000000 2.68987000
182.30000000 2.68987000
182.40000000 2.68987000
182.50000000 2.68987000
182.60000000 2.68987000
182.70000000 2.68987000
182.80000000 2.68987000
182.90000000 2.68987000
183.00000000 2.68987000
183.10000000 2.68987000
183.20000000 2.68987000
183.30000000 2.68987000
183.40000000 2.68987000
183.50000000 2.68987000
183.60000000 2.68987000
183.70000000 2.68987000
183.80000000 2.68987000
183.90000000 2.68987000
184.00000000 2.68987000
184.10000000 2.68987000
184.20000000 2.68987000
184.30000000 2.68987000
184.40000000 2.68987000
184.50000000 2.68987000
184.60000000 2.68987000
184.70000000 2.68987000
184.80000000 2.68987000
184.90000000 2.68987000
185.00000000 2.68987000
185.10000000 2.68987000
185.20000000 2.68987000
185.30000000 2.68987000
185.40000000 2.68987000
185.50000000 2.68987000
185.60000000 2.68987000
185.70000000 2.68987000
185.80000000 2.68987000
185.90000000 2.68987000
186.00000000 2.68987000
186.10000000 2.68987000
186.20000000 2.68987000
186.30000000 2.68987000
186.40000000 2.68987000
186.50000000 2.68987000
186.60000000 2.68987000
186.70000000 2.68987000
186.80000000 2.68987000
186.90000000 2.68987000
187.00000000 2.68987000
187.10000000 2.68987000
187.20000000 2.68987000
187.30000000 2.68987000
187.40000000 2.68987000
187.50000000 2.68987000
187.60000000 2.68987000
187.70000000 2.68987000
187.80000000 2.68987000
187.90000000 2.68987000
188.00000000 2.68987000
188.10000000 2.68987000
188.20000000 2.68987000
188.30000000 2.68987000
188.40000000 2.68987000
188.50000000 2.68987000
188.60000000 2.68987000
188.70000000 2.68987000
188.80000000 2.68987000
188.90000000 2.68987000
189.00000000 2.68987000
189.10000000 2.68987000
189.20000000 2.68987000
189.30000000 2.68987000
189.40000000 2.68987000
189.50000000 2.68987000
189.60000000 2.68987000
189.70000000 2.68987000
189.80000000 2.68987000
189.90000000 2.68987000
190.00000000 2.68987000
190.10000000 2.68987000
190.20000000 2.68987000
190.30000000 2.68987000
190.40000000 2.68987000
190.50000000 2.68987000
190.60000000 2.68987000
190.70000000 2.68987000
190.80000000 2.68987000
190.90000000 2.68987000
191.00000000 2.68987000
191.10000000 2.68987000
191.20000000 2.68987000
191.30000000 2.68987000
191.40000000 2.68987000
191.50000000 2.68987000
191.60000000 2.68987000
191.70000000 2.68987000
191.80000000 2.68987000
191.90000000 2.68987000
192.00000000 2.68987000
192.10000000 2.68987000
192.20000000 2.68987000
192.30000000 2.68987000
192.40000000 2.68987000
192.50000000 2.68987000
192.60000000 2.68987000
192.70000000 2.68987000
192.80000000 2.68987000
192.90000000 2.68987000
193.00000000 2.68987000
193.10000000 2.68987000
193.20000000 2.68987000
193.30000000 2.68987000
193.40000000 2.68987000
193.50000000 2.68987000
193.60000000 2.68987000
193.70000000 2.68987000
193.80000000 2.68987000
193.90000000 2.68987000
194.00000000 2.68987000
194.10000000 2.68987000
194.20000000 2.68987000
194.30000000 2.68987000
194.40000000 2.68987000
194.50000000 2.68987000
194.60000000 2.68987000
194.70000000 2.68987000
194.80000000 2.68987000
194.90000000 2.68987000
195.00000000 2.68987000
195.10000000 2.68987000
195.20000000 2.68987000
195.30000000 2.68987000
195.40000000 2.68987000
195.50000000 2.68987000
195.60000000 2.68987000
195.70000000 2.68987000
195.80000000 2.68987000
195.90000000 2.68987000
196.00000000 2.68987000
196.10000000 2.68987000
196.20000000 2.68987000
196.30000000 2.68987000
196.40000000 2.68987000
196.50000000 2.68987000
196.60000000 2.68987000
196.70000000 2.68987000
196.80000000 2.68987000
196.90000000 2.68987000
197.00000000 2.68987000
197.10000000 2.68987000
197.20000000 2.68987000
197.30000000 2.68987000
197.40000000 2.68987000
197.50000000 2.68987000
197.60000000 2.68987000
197.70000000 2.68987000
197.80000000 2.68987000
197.90000000 2.68987000
198.00000000 2.68987000
198.10000000 2.68987000
198.20000000 2.68987000
198.30000000 2.68987000
198.40000000 2.68987000
198.50000000 2.68987000
198.60000000 2.68987000
198.70000000 2.68987000
198.80000000 2.68987000
198.90000000 2.68987000
199.00000000 2.68987000
199.10000000 2.68987000
199.20000000 2.68987000
199.30000000 2.68987000
199.40000000 2.68987000
199.50000000 2.68987000
199.60000000 2.68987000
199.70000000 2.68987000
199.80000000 2.68987000
199.90000000 2.68987000
200.00000000 2.68987000
200.10000000 2.68987000
200.20000000 2.68987000
200.30000000 2.68987000
200.40000000 2.68987000
200.50000000 2.68987000
200.60000000 2.68987000
200.70000000 2.68987000
200.80000000 2.68987000
200.90000000 2.68987000
201.00000000 2.68987000
201.10000000 2.68987000
201.20000000 2.68987000
201.30000000 2.68987000
201.40000000 2.68987000
201.50000000 2.68987000
201.60000000 2.68987000
201.70000000 2.68987000
201.80000000 2.68987000
201.90000000 2.68987000
202.00000000 2.68987000
202.10000000 2.68987000
202.20000000 2.68987000
202.30000000 2.68987000
202.40000000 2.68987000
202.50000000 2.68987000
202.60000000 2.68987000
202.70000000 2.68987000
202.80000000 2.68987000
202.90000000 2.68987000
203.00000000 2.68987000
203.10000000 2.68987000
203.20000000 2.68987000
203.30000000 2.68987000
203.40000000 2.68987000
203.50000000 2.68987000
203.60000000 2.68987000
203.70000000 2.68987000
203.80000000 2.68987000
203.90000000 2.68987000
204.00000000 2.68987000
204.10000000 2.68987000
204.20000000 2.68987000
204.30000000 2.68987000
204.40000000 2.68987000
204.50000000 2.68987000
204.60000000 2.68987000
204.70000000 2.68987000
204.80000000 2.68987000
204.90000000 2.68987000
205.00000000 2.68987000
205.10000000 2.68987000
205.20000000 2.68987000
205.30000000 2.68987000
205.40000000 2.68987000
205.50000000 2.68987000
205.60000000 2.68987000
205.70000000 2.68987000
205.80000000 2.68987000
205.90000000 2.68987000
206.00000000 2.68987000
206.10000000 2.68987000
206.20000000 2.68987000
206.30000000 2.68987000
206.40000000 2.68987000
206.50000000 2.68987000
206.60000000 2.68987000
206.70000000 2.68987000
206.80000000 2.68987000
206.90000000 2.68987000
207.00000000 2.68987000
207.10000000 2.68987000
207.20000000 2.68987000
207.30000000 2.68987000
207.40000000 2.68987000
207.50000000 2.68987000
207.60000000 2.68987000
207.70000000 2.68987000
207.80000000 2.68987000
207.90000000 2.68987000
208.00000000 2.68987000
208.10000000 2.68987000
208.20000000 2.68987000
208.30000000 2.68987000
208.40000000 2.68987000
208.50000000 2.68987000
208.60000000 2.68987000
208.70000000 2.68987000
208.80000000 2.68987000
208.90000000 2.68987000
209.00000000 2.68987000
209.10000000 2.68987000
209.20000000 2.68987000
209.30000000 2.68987000
209.40000000 2.68987000
209.50000000 2.68987000
209.60000000 2.68987000
209.70000000 2.68987000
209.80000000 2.68987000
209.90000000 2.68987000
210.00000000 2.68987000
210.10000000 2.68987000
210.20000000 2.68987000
210.30000000 2.68987000
210.40000000 2.68987000
210.50000000 2.68987000
210.60000000 2.68987000
210.70000000 2.68987000
210.80000000 2.68987000
210.90000000 2.68987000
211.00000000 2.68987000
211.10000000 2.68987000
211.20000000 2.68987000
211.30000000 2.68987000
211.40000000 2.68987000
211.50000000 2.68987000
211.60000000 2.68987000
211.70000000 2.68987000
211.80000000 2.68987000
211.90000000 2.68987000
212.00000000 2.68987000
212.10000000 2.68987000
212.20000000 2.68987000
212.30000000 2.68987000
212.40000000 2.68987000
212.50000000 2.68987000
212.60000000 2.68987000
212.70000000 2.68987000
212.80000000 2.68987000
212.90000000 2.68987000
213.00000000 2.68987000
213.10000000 2.68987000
213.20000000 2.68987000
213.30000000 2.68987000
213.40000000 2.68987000
213.50000000 2.68987000
213.60000000 2.68987000
213.70000000 2.68987000
213.80000000 2.68987000
213.90000000 2.68987000
214.00000000 2.68987000
214.10000000 2.68987000
214.20000000 2.68987000
214.30000000 2.68987000
214.40000000 2.68987000
214.50000000 2.68987000
214.60000000 2.68987000
214.70000000 2.68987000
214.80000000 2.68987000
214.90000000 2.68987000
215.00000000 2.68987000
215.10000000 2.68987000
215.20000000 2.68987000
215.30000000 2.68987000
215.40000000 2.68987000
215.50000000 2.68987000
215.60000000 2.68987000
215.70000000 2.68987000
215.80000000 2.68987000
215.90000000 2.68987000
216.00000000 2.68987000
216.10000000 2.68987000
216.20000000 2.68987000
216.30000000 2.68987000
216.40000000 2.68987000
216.50000000 2.68987000
216.60000000 2.68987000
216.70000000 2.68987000
216.80000000 2.68987000
216.90000000 2.68987000
217.00000000 2.68987000
217.10000000 2.68987000
217.20000000 2.68987000
217.30000000 2.68987000
217.40000000 2.68987000
217.50000000 2.68987000
217.60000000 2.68987000
217.70000000 2.68987000
217.80000000 2.68987000
217.90000000 2.68987000
218.00000000 2.68987000
218.10000000 2.68987000
218.20000000 2.68987000
218.30000000 2.68987000
218.40000000 2.68987000
218.50000000 2.68987000
218.60000000 2.68987000
218.70000000 2.68987000
218.80000000 2.68987000
218.90000000 2.68987000
219.00000000 2.68987000
219.10000000 2.68987000
219.20000000 2.68987000
219.30000000 2.68987000
219.40000000 2.68987000
219.50000000 2.68987000
219.60000000 2.68987000
219.70000000 2.68987000
219.80000000 2.68987000
219.90000000 2.68987000
220.00000000 2.68987000
220.10000000 2.68987000
220.20000000 2.68987000
220.30000000 2.68987000
220.40000000 2.68987000
220.50000000 2.68987000
220.60000000 2.68987000
220.70000000 2.68987000
220.80000000 2.68987000
220.90000000 2.68987000
221.00000000 2.68987000
221.10000000 2.68987000
221.20000000 2.68987000
221.30000000 2.68987000
221.40000000 2.68987000
221.50000000 2.68987000
221.60000000 2.68987000
221.70000000 2.68987000
221.80000000 2.68987000
221.90000000 2.68987000
222.00000000 2.68987000
222.10000000 2.68987000
222.20000000 2.68987000
222.30000000 2.68987000
222.40000000 2.68987000
222.50000000 2.68987000
222.60000000 2.68987000
222.70000000 2.68987000
222.80000000 2.68987000
222.90000000 2.68987000
223.00000000 2.68987000
223.10000000 2.68987000
223.20000000 2.68987000
223.30000000 2.68987000
223.40000000 2.68987000
223.50000000 2.68987000
223.60000000 2.68987000
223.70000000 2.68987000
223.80000000 2.68987000
223.90000000 2.68987000
224.00000000 2.68987000
224.10000000 2.68987000
224.20000000 2.68987000
224.30000000 2.68987000
224.40000000 2.68987000
224.50000000 2.68987000
224.60000000 2.68987000
224.70000000 2.68987000
224.80000000 2.68987000
224.90000000 2.68987000
225.00000000 2.68987000
225.10000000 2.68987000
225.20000000 2.68987000
225.30000000 2.68987000
225.40000000 2.68987000
225.50000000 2.68987000
225.60000000 2.68987000
225.70000000 2.68987000
225.80000000 2.68987000
225.90000000 2.68987000
226.00000000 2.68987000
226.10000000 2.68987000
226.20000000 2.68987000
226.30000000 2.68987000
226.40000000 2.68987000
226.50000000 2.68987000
226.60000000 2.68987000
226.70000000 2.68987000
226.80000000 2.68987000
226.90000000 2.68987000
227.00000000 2.68987000
227.10000000 2.68987000
227.20000000 2.68987000
227.30000000 2.68987000
227.40000000 2.68987000
227.50000000 2.68987000
227.60000000 2.68987000
227.70000000 2.68987000
227.80000000 2.68987000
227.90000000 2.68987000
228.00000000 2.68987000
228.10000000 2.68987000
228.20000000 2.68987000
228.30000000 2.68987000
228.40000000 2.68987000
228.50000000 2.68987000
228.60000000 2.68987000
228.70000000 2.68987000
228.80000000 2.68987000
228.90000000 2.68987000
229.00000000 2.68987000
229.10000000 2.68987000
229.20000000 2.68987000
229.30000000 2.68987000
229.40000000 2.68987000
229.50000000 2.68987000
229.60000000 2.68987000
229.70000000 2.68987000
229.80000000 2.68987000
229.90000000 2.68987000
230.00000000 2.68987000
230.10000000 2.68987000
230.20000000 2.68987000
230.30000000 2.68987000
230.40000000 2.68987000
230.50000000 2.68987000
230.60000000 2.68987000
230.70000000 2.68987000
230.80000000 2.68987000
230.90000000 2.68987000
231.00000000 2.68987000
231.10000000 2.68987000
231.20000000 2.68987000
231.30000000 2.68987000
231.40000000 2.68987000
231.50000000 2.68987000
231.60000000 2.68987000
231.70000000 2.68987000
231.80000000 2.68987000
231.90000000 2.68987000
232.00000000 2.68987000
232.10000000 2.68987000
232.20000000 2.68987000
232.30000000 2.68987000
232.40000000 2.68987000
232.50000000 2.68987000
232.60000000 2.68987000
232.70000000 2.68987000
232.80000000 2.68987000
232.90000000 2.68987000
233.00000000 2.68987000
233.10000000 2.68987000
233.20000000 2.68987000
233.30000000 2.68987000
233.40000000 2.68987000
233.50000000 2.68987000
233.60000000 2.68987000
233.70000000 2.68987000
233.80000000 2.68987000
233.90000000 2.68987000
234.00000000 2.68987000
234.10000000 2.68987000
234.20000000 2.68987000
234.30000000 2.68987000
234.40000000 2.68987000
234.50000000 2.68987000
234.60000000 2.68987000
234.70000000 2.68987000
234.80000000 2.68987000
234.90000000 2.68987000
235.00000000 2.68987000
235.10000000 2.68987000
235.20000000 2.68987000
235.30000000 2.68987000
235.40000000 2.68987000
235.50000000 2.68987000
235.60000000 2.68987000
235.70000000 2.68987000
235.80000000 2.68987000
235.90000000 2.68987000
236.00000000 2.68987000
236.10000000 2.68987000
236.20000000 2.68987000
236.30000000 2.68987000
236.40000000 2.68987000
236.50000000 2.68987000
236.60000000 2.68987000
236.70000000 2.68987000
236.80000000 2.68987000
236.90000000 2.68987000
237.00000000 2.68987000
237.10000000 2.68987000
237.20000000 2.68987000
237.30000000 2.68987000
237.40000000 2.68987000
237.50000000 2.68987000
237.60000000 2.68987000
237.70000000 2.68987000
237.80000000 2.68987000
237.90000000 2.68987000
238.00000000 2.68987000
238.10000000 2.68987000
238.20000000 2.68987000
238.30000000 2.68987000
238.40000000 2.68987000
238.50000000 2.68987000
238.60000000 2.68987000
238.70000000 2.68987000
238.80000000 2.68987000
238.90000000 2.68987000
239.00000000 2.68987000
239.10000000 2.68987000
239.20000000 2.68987000
239.30000000 2.68987000
239.40000000 2.68987000
239.50000000 2.68987000
239.60000000 2.68987000
239.70000000 2.68987000
239.80000000 2.68987000
239.90000000 2.68987000
240.00000000 2.68987000
240.10000000 2.68987000
240.20000000 2.68987000
240.30000000 2.68987000
240.40000000 2.68987000
240.50000000 2.68987000
240.60000000 2.68987000
240.70000000 2.68987000
240.80000000 2.68987000
240.90000000 2.68987000
241.00000000 2.68987000
241.10000000 2.68987000
241.20000000 2.68987000
241.30000000 2.68987000
241.40000000 2.68987000
241.50000000 2.68987000
241.60000000 2.68987000
241.70000000 2.68987000
241.80000000 2.68987000
241.90000000 2.68987000
242.00000000 2.68987000
242.10000000 2.68987000
242.20000000 2.68987000
242.30000000 2.68987000
242.40000000 2.68987000
242.50000000 2.68987000
242.60000000 2.68987000
242.70000000 2.68987000
242.80000000 2.68987000
242.90000000 2.68987000
243.00000000 2.68987000
243.10000000 2.68987000
243.20000000 2.68987000
243.30000000 2.68987000
243.40000000 2.68987000
243.50000000 2.68987000
243.60000000 2.68987000
243.70000000 2.68987000
243.80000000 2.68987000
243.90000000 2.68987000
244.00000000 2.68987000
244.10000000 2.68987000
244.20000000 2.68987000
244.30000000 2.68987000
244.40000000 2.68987000
244.50000000 2.68987000
244.60000000 2.68987000
244.70000000 2.68987000
244.80000000 2.68987000
244.90000000 2.68987000
245.00000000 2.68987000
245.10000000 2.68987000
245.20000000 2.68987000
245.30000000 2.68987000
245.40000000 2.68987000
245.50000000 2.68987000
245.60000000 2.68987000
245.70000000 2.68987000
245.80000000 2.68987000
245.90000000 2.68987000
246.00000000 2.68987000
246.10000000 2.68987000
246.20000000 2.68987000
246.30000000 2.68987000
246.40000000 2.68987000
246.50000000 2.68987000
246.60000000 2.68987000
246.70000000 2.68987000
246.80000000 2.68987000
246.90000000 2.68987000
247.00000000 2.68987000
247.10000000 2.68987000
247.20000000 2.68987000
247.30000000 2.68987000
247.40000000 2.68987000
247.50000000 2.68987000
247.60000000 2.68987000
247.70000000 2.68987000
247.80000000 2.68987000
247.90000000 2.68987000
248.00000000 2.68987000
248.10000000 2.68987000
248.20000000 2.68987000
248.30000000 2.68987000
248.40000000 2.68987000
248.50000000 2.68987000
248.60000000 2.68987000
248.70000000 2.68987000
248.80000000 2.68987000
248.90000000 2.68987000
249.00000000 2.68987000
249.10000000 2.68987000
249.20000000 2.68987000
249.30000000 2.68987000
249.40000000 2.68987000
249.50000000 2.68987000
249.60000000 2.68987000
249.70000000 2.68987000
249.80000000 2.68987000
249.90000000 2.68987000
250.00000000 2.68987000
250.10000000 2.68987000
250.20000000 2.68987000
250.30000000 2.68987000
250.40000000 2.68987000
250.50000000 2.68987000
250.60000000 2.68987000
250.70000000 2.68987000
250.80000000 2.68987000
250.90000000 2.68987000
251.00000000 2.68987000
251.10000000 2.68987000
251.20000000 2.68987000
251.30000000 2.68987000
251.40000000 2.68987000
251.50000000 2.68987000
251.60000000 2.68987000
251.70000000 2.68987000
251.80000000 2.68987000
251.90000000 2.68987000
252.00000000 2.68987000
252.10000000 2.68987000
252.20000000 2.68987000
252.30000000 2.68987000
252.40000000 2.68987000
252.50000000 2.68987000
252.60000000 2.68987000
252.70000000 2.68987000
252.80000000 2.68987000
252.90000000 2.68987000
253.00000000 2.68987000
253.10000000 2.68987000
253.20000000 2.68987000
253.30000000 2.68987000
253.40000000 2.68987000
253.50000000 2.68987000
253.60000000 2.68987000
253.70000000 2.68987000
253.80000000 2.68987000
253.90000000 2.68987000
254.00000000 2.68987000
254.10000000 2.68987000
254.20000000 2.68987000
254.30000000 2.68987000
254.40000000 2.68987000
254.50000000 2.68987000
254.60000000 2.68987000
254.70000000 2.68987000
254.80000000 2.68987000
254.90000000 2.68987000
255.00000000 2.68987000
255.10000000 2.68987000
255.20000000 2.68987000
255.30000000 2.68987000
255.40000000 2.68987000
255.50000000 2.68987000
255.60000000 2.68987000
255.70000000 2.68987000
255.80000000 2.68987000
255.90000000 2.68987000
256.00000000 2.68987000
256.10000000 2.68987000
256.20000000 2.68987000
256.30000000 2.68987000
256.40000000 2.68987000
256.50000000 2.68987000
256.60000000 2.68987000
256.70000000 2.68987000
256.80000000 2.68987000
256.90000000 2.68987000
257.00000000 2.68987000
257.10000000 2.68987000
257.20000000 2.68987000
257.30000000 2.68987000
257.40000000 2.68987000
257.50000000 2.68987000
257.60000000 2.68987000
257.70000000 2.68987000
257.80000000 2.68987000
257.90000000 2.68987000
258.00000000 2.68987000
258.10000000 2.68987000
258.20000000 2.68987000
258.30000000 2.68987000
258.40000000 2.68987000
258.50000000 2.68987000
258.60000000 2.68987000
258.70000000 2.68987000
258.80000000 2.68987000
258.90000000 2.68987000
259.00000000 2.68987000
259.10000000 2.68987000
259.20000000 2.68987000
259.30000000 2.68987000
259.40000000 2.68987000
259.50000000 2.68987000
259.60000000 2.68987000
259.70000000 2.68987000
259.80000000 2.68987000
259.90000000 2.68987000
260.00000000 2.68987000
260.10000000 2.68987000
260.20000000 2.68987000
260.30000000 2.68987000
260.40000000 2.68987000
260.50000000 2.68987000
260.60000000 2.68987000
260.70000000 2.68987000
260.80000000 2.68987000
260.90000000 2.68987000
261.00000000 2.68987000
261.10000000 2.68987000
261.20000000 2.68987000
261.30000000 2.68987000
261.40000000 2.68987000
261.50000000 2.69707000
261.60000000 2.69707000
261.70000000 2.69707000
261.80000000 2.69707000
261.90000000 2.69707000
262.00000000 2.69707000
262.10000000 2.69707000
262.20000000 2.69707000
262.30000000 2.69707000
262.40000000 2.69707000
262.50000000 2.69707000
262.60000000 2.69707000
262.70000000 2.69707000
262.80000000 2.69707000
262.90000000 2.69707000
263.00000000 2.69707000
263.10000000 2.69707000
263.20000000 2.69707000
263.30000000 2.69707000
263.40000000 2.69707000
263.50000000 2.69707000
263.60000000 2.69707000
263.70000000 2.69707000
263.80000000 2.69707000
263.90000000 2.69707000
264.00000000 2.69707000
264.10000000 2.69707000
264.20000000 2.69707000
264.30000000 2.69707000
264.40000000 2.69707000
264.50000000 2.69707000
264.60000000 2.69707000
264.70000000 2.69707000
264.80000000 2.69707000
264.90000000 2.69707000
265.00000000 2.69707000
265.10000000 2.69707000
265.20000000 2.69707000
265.30000000 2.69707000
265.40000000 2.69707000
265.50000000 2.69707000
265.60000000 2.69707000
265.70000000 2.69707000
265.80000000 2.69707000
265.90000000 2.69707000
266.00000000 2.69707000
266.10000000 2.69707000
266.20000000 2.69707000
266.30000000 2.69707000
266.40000000 2.69707000
266.50000000 2.69707000
266.60000000 2.69707000
266.70000000 2.69707000
266.80000000 2.69707000
266.90000000 2.69707000
267.00000000 2.69707000
267.10000000 2.69707000
267.20000000 2.69707000
267.30000000 2.69707000
267.40000000 2.69707000
267.50000000 2.69707000
267.60000000 2.69707000
267.70000000 2.69707000
267.80000000 2.69707000
267.90000000 2.69707000
268.00000000 2.69707000
268.10000000 2.69707000
268.20000000 2.69707000
268.30000000 2.69707000
268.40000000 2.69707000
268.50000000 2.69707000
268.60000000 2.69707000
268.70000000 2.69707000
268.80000000 2.69707000
268.90000000 2.69707000
269.00000000 2.69707000
269.10000000 2.69707000
269.20000000 2.69707000
269.30000000 2.69707000
269.40000000 2.69707000
269.50000000 2.69707000
269.60000000 2.69707000
269.70000000 2.69707000
269.80000000 2.69707000
269.90000000 2.69707000
270.00000000 2.69707000
270.10000000 2.69707000
270.20000000 2.69707000
270.30000000 2.69707000
270.40000000 2.69707000
270.50000000 2.69707000
270.60000000 2.69707000
270.70000000 2.69707000
270.80000000 2.69707000
270.90000000 2.69707000
271.00000000 2.69707000
271.10000000 2.69707000
271.20000000 2.69707000
271.30000000 2.69707000
271.40000000 2.69707000
271.50000000 2.69707000
271.60000000 2.69707000
271.70000000 2.69707000
271.80000000 2.69707000
271.90000000 2.69707000
272.00000000 2.69707000
272.10000000 2.69707000
272.20000000 2.69707000
272.30000000 2.69707000
272.40000000 2.69707000
272.50000000 2.69707000
272.60000000 2.69707000
272.70000000 2.69707000
272.80000000 2.69707000
272.90000000 2.69707000
273.00000000 2.69707000
273.10000000 2.69707000
273.20000000 2.69707000
273.30000000 2.69707000
273.40000000 2.69707000
273.50000000 2.69707000
273.60000000 2.69707000
273.70000000 2.69707000
273.80000000 2.69707000
273.90000000 2.69707000
274.00000000 2.69707000
274.10000000 2.69707000
274.20000000 2.69707000
274.30000000 2.69707000
274.40000000 2.69707000
274.50000000 2.69707000
274.60000000 2.69707000
274.70000000 2.69707000
274.80000000 2.69707000
274.90000000 2.69707000
275.00000000 2.69707000
275.10000000 2.69707000
275.20000000 2.69707000
275.30000000 2.69707000
275.40000000 2.69707000
275.50000000 2.69707000
275.60000000 2.69707000
275.70000000 2.69707000
275.80000000 2.69707000
275.90000000 2.69707000
276.00000000 2.69707000
276.10000000 2.69707000
276.20000000 2.69707000
276.30000000 2.69707000
276.40000000 2.69707000
276.50000000 2.69707000
276.60000000 2.69707000
276.70000000 2.69707000
276.80000000 2.69707000
276.90000000 2.69707000
277.00000000 2.69707000
277.10000000 2.69707000
277.20000000 2.69707000
277.30000000 2.69707000
277.40000000 2.69707000
277.50000000 2.69707000
277.60000000 2.69707000
277.70000000 2.69707000
277.80000000 2.69707000
277.90000000 2.69707000
278.00000000 2.69707000
278.10000000 2.69707000
278.20000000 2.69707000
278.30000000 2.69707000
278.40000000 2.69707000
278.50000000 2.69707000
278.60000000 2.69707000
278.70000000 2.69707000
278.80000000 2.69707000
278.90000000 2.69707000
279.00000000 2.69707000
279.10000000 2.69707000
279.20000000 2.69707000
279.30000000 2.69707000
279.40000000 2.69707000
279.50000000 2.69707000
279.60000000 2.69707000
279.70000000 2.69707000
279.80000000 2.69707000
279.90000000 2.69707000
280.00000000 2.69707000
280.10000000 2.69707000
280.20000000 2.69707000
280.30000000 2.69707000
280.40000000 2.69707000
280.50000000 2.69707000
280.60000000 2.69707000
280.70000000 2.69707000
280.80000000 2.69707000
280.90000000 2.69707000
281.00000000 2.69707000
281.10000000 2.69707000
281.20000000 2.69707000
281.30000000 2.69707000
281.40000000 2.69707000
281.50000000 2.69707000
281.60000000 2.69707000
281.70000000 2.69707000
281.80000000 2.69707000
281.90000000 2.69707000
282.00000000 2.69707000
282.10000000 2.69707000
282.20000000 2.69707000
282.30000000 2.69707000
282.40000000 2.69707000
282.50000000 2.69707000
282.60000000 2.69707000
282.70000000 2.69707000
282.80000000 2.69707000
282.90000000 2.69707000
283.00000000 2.69707000
283.10000000 2.69707000
283.20000000 2.69707000
283.30000000 2.69707000
283.40000000 2.69707000
283.50000000 2.69707000
283.60000000 2.69707000
283.70000000 2.69707000
283.80000000 2.69707000
283.90000000 2.69707000
284.00000000 2.69707000
284.10000000 2.69707000
284.20000000 2.69707000
284.30000000 2.69707000
284.40000000 2.69707000
284.50000000 2.69707000
284.60000000 2.69707000
284.70000000 2.69707000
284.80000000 2.69707000
284.90000000 2.69707000
285.00000000 2.69707000
285.10000000 2.69707000
285.20000000 2.69707000
285.30000000 2.69707000
285.40000000 2.69707000
285.50000000 2.69707000
285.60000000 2.69707000
285.70000000 2.69707000
285.80000000 2.69707000
285.90000000 2.69707000
286.00000000 2.69707000
286.10000000 2.69707000
286.20000000 2.69707000
286.30000000 2.69707000
286.40000000 2.69707000
286.50000000 2.69707000
286.60000000 2.69707000
286.70000000 2.69707000
286.80000000 2.69707000
286.90000000 2.69707000
287.00000000 2.69707000
287.10000000 2.69707000
287.20000000 2.69707000
287.30000000 2.69707000
287.40000000 2.69707000
287.50000000 2.69707000
287.60000000 2.69707000
287.70000000 2.69707000
287.80000000 2.69707000
287.90000000 2.69707000
288.00000000 2.69707000
288.10000000 2.69707000
288.20000000 2.69707000
288.30000000 2.69707000
288.40000000 2.69707000
288.50000000 2.69707000
288.60000000 2.69707000
288.70000000 2.69707000
288.80000000 2.69707000
288.90000000 2.69707000
289.00000000 2.69707000
289.10000000 2.69707000
289.20000000 2.69707000
289.30000000 2.69707000
289.40000000 2.69707000
289.50000000 2.69707000
289.60000000 2.69707000
289.70000000 2.69707000
289.80000000 2.69707000
289.90000000 2.69707000
290.00000000 2.69707000
290.10000000 2.69707000
290.20000000 2.69707000
290.30000000 2.69707000
290.40000000 2.69707000
290.50000000 2.69707000
290.60000000 2.69707000
290.70000000 2.69707000
290.80000000 2.69707000
290.90000000 2.69707000
291.00000000 2.69707000
291.10000000 2.69707000
291.20000000 2.69707000
291.30000000 2.69707000
291.40000000 2.69707000
291.50000000 2.69707000
291.60000000 2.69707000
291.70000000 2.69707000
291.80000000 2.69707000
291.90000000 2.69707000
292.00000000 2.69707000
292.10000000 2.69707000
292.20000000 2.69707000
292.30000000 2.69707000
292.40000000 2.69707000
292.50000000 2.69707000
292.60000000 2.69707000
292.70000000 2.69707000
292.80000000 2.69707000
292.90000000 2.69707000
293.00000000 2.69707000
293.10000000 2.69707000
293.20000000 2.69707000
293.30000000 2.69707000
293.40000000 2.69707000
293.50000000 2.69707000
293.60000000 2.69707000
293.70000000 2.69707000
293.80000000 2.69707000
293.90000000 2.69707000
294.00000000 2.69707000
294.10000000 2.69707000
294.20000000 2.69707000
294.30000000 2.69707000
294.40000000 2.69707000
294.50000000 2.69707000
294.60000000 2.69707000
294.70000000 2.69707000
294.80000000 2.69707000
294.90000000 2.69707000
295.00000000 2.69707000
295.10000000 2.69707000
295.20000000 2.69707000
295.30000000 2.69707000
295.40000000 2.69707000
295.50000000 2.69707000
295.60000000 2.69707000
295.70000000 2.69707000
295.80000000 2.69707000
295.90000000 2.69707000
296.00000000 2.69707000
296.10000000 2.69707000
296.20000000 2.69707000
296.30000000 2.69707000
296.40000000 2.69707000
296.50000000 2.69707000
296.60000000 2.69707000
296.70000000 2.69707000
296.80000000 2.69707000
296.90000000 2.69707000
297.00000000 2.69707000
297.10000000 2.69707000
297.20000000 2.69707000
297.30000000 2.69707000
297.40000000 2.69707000
297.50000000 2.69707000
297.60000000 2.69707000
297.70000000 2.69707000
297.80000000 2.69707000
297.90000000 2.69707000
298.00000000 2.69707000
298.10000000 2.69707000
298.20000000 2.69707000
298.30000000 2.69707000
298.40000000 2.69707000
298.50000000 2.69707000
298.60000000 2.69707000
298.70000000 2.69707000
298.80000000 2.69707000
298.90000000 2.69707000
299.00000000 2.69707000
299.10000000 2.69707000
299.20000000 2.69707000
299.30000000 2.69707000
299.40000000 2.69707000
299.50000000 2.69707000
299.60000000 2.69707000
299.70000000 2.69707000
299.80000000 2.69707000
299.90000000 2.69707000
300.00000000 2.69707000
300.10000000 2.69707000
300.20000000 2.69707000
300.30000000 2.69707000
300.40000000 2.69707000
300.50000000 2.69707000
300.60000000 2.69707000
300.70000000 2.69707000
300.80000000 2.69707000
300.90000000 2.69707000
301.00000000 2.69707000
301.10000000 2.69707000
301.20000000 2.69707000
301.30000000 2.69707000
301.40000000 2.69707000
301.50000000 2.69707000
301.60000000 2.69707000
301.70000000 2.69707000
301.80000000 2.69707000
301.90000000 2.69707000
302.00000000 2.69707000
302.10000000 2.69707000
302.20000000 2.69707000
302.30000000 2.69707000
302.40000000 2.69707000
302.50000000 2.69707000
302.60000000 2.69707000
302.70000000 2.69707000
302.80000000 2.69707000
302.90000000 2.69707000
303.00000000 2.69707000
303.10000000 2.69707000
303.20000000 2.69707000
303.30000000 2.69707000
303.40000000 2.69707000
303.50000000 2.69707000
303.60000000 2.69707000
303.70000000 2.69707000
303.80000000 2.69707000
303.90000000 2.69707000
304.00000000 2.69707000
304.10000000 2.69707000
304.20000000 2.69707000
304.30000000 2.69707000
304.40000000 2.69707000
304.50000000 2.69707000
304.60000000 2.69707000
304.70000000 2.69707000
304.80000000 2.69707000
304.90000000 2.69707000
305.00000000 2.69707000
305.10000000 2.69707000
305.20000000 2.69707000
305.30000000 2.69707000
305.40000000 2.69707000
305.50000000 2.69707000
305.60000000 2.69707000
305.70000000 2.69707000
305.80000000 2.69707000
305.90000000 2.69707000
306.00000000 2.69707000
306.10000000 2.69707000
306.20000000 2.69707000
306.30000000 2.69707000
306.40000000 2.69707000
306.50000000 2.69707000
306.60000000 2.69707000
306.70000000 2.69707000
306.80000000 2.69707000
306.90000000 2.69707000
307.00000000 2.69707000
307.10000000 2.69707000
307.20000000 2.69707000
307.30000000 2.69707000
307.40000000 2.69707000
307.50000000 2.69707000
307.60000000 2.69707000
307.70000000 2.69707000
307.80000000 2.69707000
307.90000000 2.69707000
308.00000000 2.69707000
308.10000000 2.69707000
308.20000000 2.69707000
308.30000000 2.69707000
308.40000000 2.69707000
308.50000000 2.69707000
308.60000000 2.69707000
308.70000000 2.69707000
308.80000000 2.69707000
308.90000000 2.69707000
309.00000000 2.69707000
309.10000000 2.69707000
309.20000000 2.69707000
309.30000000 2.69707000
309.40000000 2.69707000
309.50000000 2.69707000
309.60000000 2.69707000
309.70000000 2.69707000
309.80000000 2.69707000
309.90000000 2.69707000
310.00000000 2.69707000
310.10000000 2.69707000
310.20000000 2.69707000
310.30000000 2.69707000
310.40000000 2.69707000
310.50000000 2.69707000
310.60000000 2.69707000
310.70000000 2.69707000
310.80000000 2.69707000
310.90000000 2.69707000
311.00000000 2.69707000
311.10000000 2.69707000
311.20000000 2.69707000
311.30000000 2.69707000
311.40000000 2.69707000
311.50000000 2.69707000
311.60000000 2.69707000
311.70000000 2.69707000
311.80000000 2.69707000
311.90000000 2.69707000
312.00000000 2.69707000
312.10000000 2.69707000
312.20000000 2.69707000
312.30000000 2.69707000
312.40000000 2.69707000
312.50000000 2.69707000
312.60000000 2.69707000
312.70000000 2.69707000
312.80000000 2.69707000
312.90000000 2.69707000
313.00000000 2.69707000
313.10000000 2.69707000
313.20000000 2.69707000
313.30000000 2.69707000
313.40000000 2.69707000
313.50000000 2.69707000
313.60000000 2.69707000
313.70000000 2.69707000
313.80000000 2.69707000
313.90000000 2.69707000
314.00000000 2.69707000
314.10000000 2.69707000
314.20000000 2.69707000
314.30000000 2.69707000
314.40000000 2.69707000
314.50000000 2.69707000
314.60000000 2.69707000
314.70000000 2.69707000
314.80000000 2.69707000
314.90000000 2.69707000
315.00000000 2.69707000
315.10000000 2.69707000
315.20000000 2.69707000
315.30000000 2.69707000
315.40000000 2.69707000
315.50000000 2.69707000
315.60000000 2.69707000
315.70000000 2.69707000
315.80000000 2.69707000
315.90000000 2.69707000
316.00000000 2.69707000
316.10000000 2.69707000
316.20000000 2.69707000
316.30000000 2.69707000
316.40000000 2.69707000
316.50000000 2.69707000
316.60000000 2.69707000
316.70000000 2.69707000
316.80000000 2.69707000
316.90000000 2.69707000
317.00000000 2.69707000
317.10000000 2.69707000
317.20000000 2.69707000
317.30000000 2.69707000
317.40000000 2.69707000
317.50000000 2.69707000
317.60000000 2.69707000
317.70000000 2.69707000
317.80000000 2.69707000
317.90000000 2.69707000
318.00000000 2.69707000
318.10000000 2.69707000
318.20000000 2.69707000
318.30000000 2.69707000
318.40000000 2.69707000
318.50000000 2.69707000
318.60000000 2.69707000
318.70000000 2.69707000
318.80000000 2.69707000
318.90000000 2.69707000
319.00000000 2.69707000
319.10000000 2.69707000
319.20000000 2.69707000
319.30000000 2.69707000
319.40000000 2.69707000
319.50000000 2.69707000
319.60000000 2.69707000
319.70000000 2.69707000
319.80000000 2.69707000
319.90000000 2.69707000
320.00000000 2.69707000
320.10000000 2.69707000
320.20000000 2.69707000
320.30000000 2.69707000
320.40000000 2.69707000
320.50000000 2.69707000
320.60000000 2.69707000
320.70000000 2.69707000
320.80000000 2.69707000
320.90000000 2.69707000
321.00000000 2.69707000
321.10000000 2.69707000
321.20000000 2.69707000
321.30000000 2.69707000
321.40000000 2.69707000
321.50000000 2.69707000
321.60000000 2.69707000
321.70000000 2.69707000
321.80000000 2.69707000
321.90000000 2.69707000
322.00000000 2.69707000
322.10000000 2.69707000
322.20000000 2.69707000
322.30000000 2.69707000
322.40000000 2.69707000
322.50000000 2.69707000
322.60000000 2.69707000
322.70000000 2.69707000
322.80000000 2.69707000
322.90000000 2.69707000
323.00000000 2.69707000
323.10000000 2.69707000
323.20000000 2.69707000
323.30000000 2.69707000
323.40000000 2.69707000
323.50000000 2.69707000
323.60000000 2.69707000
323.70000000 2.69707000
323.80000000 2.69707000
323.90000000 2.69707000
324.00000000 2.69707000
324.10000000 2.69707000
324.20000000 2.69707000
324.30000000 2.69707000
324.40000000 2.69707000
324.50000000 2.69707000
324.60000000 2.69707000
324.70000000 2.69707000
324.80000000 2.69707000
324.90000000 2.69707000
325.00000000 2.69707000
325.10000000 2.69707000
325.20000000 2.69707000
325.30000000 2.69707000
325.40000000 2.69707000
325.50000000 2.69707000
325.60000000 2.69707000
325.70000000 2.69707000
325.80000000 2.69707000
325.90000000 2.69707000
326.00000000 2.69707000
326.10000000 2.69707000
326.20000000 2.69707000
326.30000000 2.69707000
326.40000000 2.69707000
326.50000000 2.69707000
326.60000000 2.69707000
326.70000000 2.69707000
326.80000000 2.69707000
326.90000000 2.69707000
327.00000000 2.69707000
327.10000000 2.69707000
327.20000000 2.69707000
327.30000000 2.69707000
327.40000000 2.69707000
327.50000000 2.69707000
327.60000000 2.69707000
327.70000000 2.69707000
327.80000000 2.69707000
327.90000000 2.69707000
328.00000000 2.69707000
328.10000000 2.69707000
328.20000000 2.69707000
328.30000000 2.69707000
328.40000000 2.69707000
328.50000000 2.69707000
328.60000000 2.69707000
328.70000000 2.69707000
328.80000000 2.69707000
328.90000000 2.69707000
329.00000000 2.69707000
329.10000000 2.69707000
329.20000000 2.69707000
329.30000000 2.69707000
329.40000000 2.69707000
329.50000000 2.69707000
329.60000000 2.69707000
329.70000000 2.69707000
329.80000000 2.69707000
329.90000000 2.69707000
330.00000000 2.69707000
330.10000000 2.69707000
330.20000000 2.69707000
330.30000000 2.69707000
330.40000000 2.69707000
330.50000000 2.69707000
330.60000000 2.69707000
330.70000000 2.69707000
330.80000000 2.69707000
330.90000000 2.69707000
331.00000000 2.69707000
331.10000000 2.69707000
331.20000000 2.69707000
331.30000000 2.69707000
331.40000000 2.69707000
331.50000000 2.69707000
331.60000000 2.69707000
331.70000000 2.69707000
331.80000000 2.69707000
331.90000000 2.69707000
332.00000000 2.69707000
332.10000000 2.69707000
332.20000000 2.69707000
332.30000000 2.69707000
332.40000000 2.69707000
332.50000000 2.69707000
332.60000000 2.69707000
332.70000000 2.69707000
332.80000000 2.69707000
332.90000000 2.69707000
333.00000000 2.69707000
333.10000000 2.69707000
333.20000000 2.69707000
333.30000000 2.69707000
333.40000000 2.69707000
333.50000000 2.69707000
333.60000000 2.69707000
333.70000000 2.69707000
333.80000000 2.69707000
333.90000000 2.69707000
334.00000000 2.69707000
334.10000000 2.69707000
334.20000000 2.69707000
334.30000000 2.69707000
334.40000000 2.69707000
334.50000000 2.69707000
334.60000000 2.69707000
334.70000000 2.69707000
334.80000000 2.69707000
334.90000000 2.69707000
335.00000000 2.69707000
335.10000000 2.69707000
335.20000000 2.69707000
335.30000000 2.69707000
335.40000000 2.69707000
335.50000000 2.69707000
335.60000000 2.69707000
335.70000000 2.69707000
335.80000000 2.69707000
335.90000000 2.69707000
336.00000000 2.69707000
336.10000000 2.69707000
336.20000000 2.69707000
336.30000000 2.69707000
336.40000000 2.69707000
336.50000000 2.69707000
336.60000000 2.69707000
336.70000000 2.69707000
336.80000000 2.69707000
336.90000000 2.69707000
337.00000000 2.69707000
337.10000000 2.69707000
337.20000000 2.69707000
337.30000000 2.69707000
337.40000000 2.69707000
337.50000000 2.69707000
337.60000000 2.69707000
337.70000000 2.69707000
337.80000000 2.69707000
337.90000000 2.69707000
338.00000000 2.69707000
338.10000000 2.69707000
338.20000000 2.69707000
338.30000000 2.69707000
338.40000000 2.69707000
338.50000000 2.69707000
338.60000000 2.69707000
338.70000000 2.69707000
338.80000000 2.69707000
338.90000000 2.69707000
339.00000000 2.69707000
339.10000000 2.69707000
339.20000000 2.69707000
339.30000000 2.69707000
339.40000000 2.69707000
339.50000000 2.69707000
339.60000000 2.69707000
339.70000000 2.69707000
339.80000000 2.69707000
339.90000000 2.69707000
340.00000000 2.69707000
340.10000000 2.69707000
340.20000000 2.69707000
340.30000000 2.69707000
340.40000000 2.69707000
340.50000000 2.69707000
340.60000000 2.69707000
340.70000000 2.69707000
340.80000000 2.69707000
340.90000000 2.69707000
341.00000000 2.69707000
341.10000000 2.69707000
341.20000000 2.69707000
341.30000000 2.69707000
341.40000000 2.69707000
341.50000000 2.69707000
341.60000000 2.69707000
341.70000000 2.69707000
341.80000000 2.69707000
341.90000000 2.69707000
342.00000000 2.69707000
342.10000000 2.69707000
342.20000000 2.69707000
342.30000000 2.69707000
342.40000000 2.69707000
342.50000000 2.69707000
342.60000000 2.69707000
342.70000000 2.69707000
342.80000000 2.69707000
342.90000000 2.69707000
343.00000000 2.69707000
343.10000000 2.69707000
343.20000000 2.69707000
343.30000000 2.69707000
343.40000000 2.69707000
343.50000000 2.69707000
343.60000000 2.69707000
343.70000000 2.69707000
343.80000000 2.69707000
343.90000000 2.69707000
344.00000000 2.69707000
344.10000000 2.69707000
344.20000000 2.69707000
344.30000000 2.69707000
344.40000000 2.69707000
344.50000000 2.69707000
344.60000000 2.69707000
344.70000000 2.69707000
344.80000000 2.69707000
344.90000000 2.69707000
345.00000000 2.69707000
345.10000000 2.69707000
345.20000000 2.69707000
345.30000000 2.69707000
345.40000000 2.69707000
345.50000000 2.69707000
345.60000000 2.69707000
345.70000000 2.69707000
345.80000000 2.69707000
345.90000000 2.69707000
346.00000000 2.69707000
346.10000000 2.69707000
346.20000000 2.69707000
346.30000000 2.69707000
346.40000000 2.69707000
346.50000000 2.69707000
346.60000000 2.69707000
346.70000000 2.69707000
346.80000000 2.69707000
346.90000000 2.69707000
347.00000000 2.69707000
347.10000000 2.69707000
347.20000000 2.69707000
347.30000000 2.69707000
347.40000000 2.69707000
347.50000000 2.69707000
347.60000000 2.69707000
347.70000000 2.69707000
347.80000000 2.69707000
347.90000000 2.69707000
348.00000000 2.69707000
348.10000000 2.69707000
348.20000000 2.69707000
348.30000000 2.69707000
348.40000000 2.69707000
348.50000000 2.69707000
348.60000000 2.69707000
348.70000000 2.69707000
348.80000000 2.69707000
348.90000000 2.69707000
349.00000000 2.69707000
349.10000000 2.69707000
349.20000000 2.69707000
349.30000000 2.69707000
349.40000000 2.69707000
349.50000000 2.69707000
349.60000000 2.69707000
349.70000000 2.69707000
349.80000000 2.69707000
349.90000000 2.69707000
350.00000000 2.69707000
350.10000000 2.69707000
350.20000000 2.69707000
350.30000000 2.69707000
350.40000000 2.69707000
350.50000000 2.69707000
350.60000000 2.69707000
350.70000000 2.69707000
350.80000000 2.69707000
350.90000000 2.69707000
351.00000000 2.69707000
351.10000000 2.69707000
351.20000000 2.69707000
351.30000000 2.69707000
351.40000000 2.69707000
351.50000000 2.69707000
351.60000000 2.69707000
351.70000000 2.69707000
351.80000000 2.69707000
351.90000000 2.69707000
352.00000000 2.69707000
352.10000000 2.69707000
352.20000000 2.69707000
352.30000000 2.69707000
352.40000000 2.69707000
352.50000000 2.69707000
352.60000000 2.69707000
352.70000000 2.69707000
352.80000000 2.69707000
352.90000000 2.69707000
353.00000000 2.69707000
353.10000000 2.69707000
353.20000000 2.69707000
353.30000000 2.69707000
353.40000000 2.69707000
353.50000000 2.69707000
353.60000000 2.69707000
353.70000000 2.69707000
353.80000000 2.69707000
353.90000000 2.69707000
354.00000000 2.69707000
354.10000000 2.69707000
354.20000000 2.69707000
354.30000000 2.69707000
354.40000000 2.69707000
354.50000000 2.69707000
354.60000000 2.69707000
354.70000000 2.69707000
354.80000000 2.69707000
354.90000000 2.69707000
355.00000000 2.69707000
355.10000000 2.69707000
355.20000000 2.69707000
355.30000000 2.69707000
355.40000000 2.69707000
355.50000000 2.69707000
355.60000000 2.69707000
355.70000000 2.69707000
355.80000000 2.69707000
355.90000000 2.69707000
356.00000000 2.69707000
356.10000000 2.69707000
356.20000000 2.69707000
356.30000000 2.69707000
356.40000000 2.69707000
356.50000000 2.69707000
356.60000000 2.69707000
356.70000000 2.69707000
356.80000000 2.69707000
356.90000000 2.69707000
357.00000000 2.69707000
357.10000000 2.69707000
357.20000000 2.69707000
357.30000000 2.69707000
357.40000000 2.69707000
357.50000000 2.69707000
357.60000000 2.69707000
357.70000000 2.69707000
357.80000000 2.69707000
357.90000000 2.69707000
358.00000000 2.69707000
358.10000000 2.69707000
358.20000000 2.69707000
358.30000000 2.69707000
358.40000000 2.69707000
358.50000000 2.69707000
358.60000000 2.69707000
358.70000000 2.69707000
358.80000000 2.69707000
358.90000000 2.69707000
359.00000000 2.69707000
359.10000000 2.69707000
359.20000000 2.69707000
359.30000000 2.69707000
359.40000000 2.69707000
359.50000000 2.69707000
359.60000000 2.69707000
359.70000000 2.69707000
359.80000000 2.69707000
359.90000000 2.69707000
360.00000000 2.69707000
360.10000000 2.69707000
360.20000000 2.69707000
360.30000000 2.69707000
360.40000000 2.69707000
360.50000000 2.69707000
360.60000000 2.69707000
360.70000000 2.69707000
360.80000000 2.69707000
360.90000000 2.69707000
361.00000000 2.69707000
361.10000000 2.69707000
361.20000000 2.69707000
361.30000000 2.69707000
361.40000000 2.69707000
361.50000000 2.69707000
361.60000000 2.69707000
361.70000000 2.69707000
361.80000000 2.69707000
361.90000000 2.69707000
362.00000000 2.69707000
362.10000000 2.69707000
362.20000000 2.69707000
362.30000000 2.69707000
362.40000000 2.69707000
362.50000000 2.69707000
362.60000000 2.69707000
362.70000000 2.69707000
362.80000000 2.69707000
362.90000000 2.69707000
363.00000000 2.69707000
363.10000000 2.69707000
363.20000000 2.69707000
363.30000000 2.69707000
363.40000000 2.69707000
363.50000000 2.69707000
363.60000000 2.69707000
363.70000000 2.69707000
363.80000000 2.69707000
363.90000000 2.69707000
364.00000000 2.69707000
364.10000000 2.69707000
364.20000000 2.69707000
364.30000000 2.69707000
364.40000000 2.69707000
364.50000000 2.69707000
364.60000000 2.69707000
364.70000000 2.69707000
364.80000000 2.69707000
364.90000000 2.69707000
365.00000000 2.69707000
365.10000000 2.69707000
365.20000000 2.69707000
365.30000000 2.69707000
365.40000000 2.69707000
365.50000000 2.69707000
365.60000000 2.69707000
365.70000000 2.69707000
365.80000000 2.69707000
365.90000000 2.69707000
366.00000000 2.69707000
366.10000000 2.69707000
366.20000000 2.69707000
366.30000000 2.69707000
366.40000000 2.69707000
366.50000000 2.69707000
366.60000000 2.69707000
366.70000000 2.69707000
366.80000000 2.69707000
366.90000000 2.69707000
367.00000000 2.69707000
367.10000000 2.69707000
367.20000000 2.69707000
367.30000000 2.69707000
367.40000000 2.69707000
367.50000000 2.69707000
367.60000000 2.69707000
367.70000000 2.69707000
367.80000000 2.69707000
367.90000000 2.69707000
368.00000000 2.69707000
368.10000000 2.69707000
368.20000000 2.69707000
368.30000000 2.69707000
368.40000000 2.69707000
368.50000000 2.69707000
368.60000000 2.69707000
368.70000000 2.69707000
368.80000000 2.69707000
368.90000000 2.69707000
369.00000000 2.69707000
369.10000000 2.69707000
369.20000000 2.69707000
369.30000000 2.69707000
369.40000000 2.69707000
369.50000000 2.69707000
369.60000000 2.69707000
369.70000000 2.69707000
369.80000000 2.69707000
369.90000000 2.69707000
370.00000000 2.69707000
370.10000000 2.69707000
370.20000000 2.69707000
370.30000000 2.69707000
370.40000000 2.69707000
370.50000000 2.69707000
370.60000000 2.69707000
370.70000000 2.69707000
370.80000000 2.69707000
370.90000000 2.69707000
371.00000000 2.69707000
371.10000000 2.69707000
371.20000000 2.69707000
371.30000000 2.69707000
371.40000000 2.69707000
371.50000000 2.69707000
371.60000000 2.69707000
371.70000000 2.69707000
371.80000000 2.69707000
371.90000000 2.69707000
372.00000000 2.69707000
372.10000000 2.69707000
372.20000000 2.69707000
372.30000000 2.69707000
372.40000000 2.69707000
372.50000000 2.69707000
372.60000000 2.69707000
372.70000000 2.69707000
372.80000000 2.69707000
372.90000000 2.69707000
373.00000000 2.69707000
373.10000000 2.69707000
373.20000000 2.69707000
373.30000000 2.69707000
373.40000000 2.69707000
373.50000000 2.69707000
373.60000000 2.69707000
373.70000000 2.69707000
373.80000000 2.69707000
373.90000000 2.69707000
374.00000000 2.69707000
374.10000000 2.69707000
374.20000000 2.69707000
374.30000000 2.69707000
374.40000000 2.69707000
374.50000000 2.69707000
374.60000000 2.69707000
374.70000000 2.69707000
374.80000000 2.69707000
374.90000000 2.69707000
375.00000000 2.69707000
375.10000000 2.69707000
375.20000000 2.69707000
375.30000000 2.69707000
375.40000000 2.69707000
375.50000000 2.69707000
375.60000000 2.69707000
375.70000000 2.69707000
375.80000000 2.69707000
375.90000000 2.69707000
376.00000000 2.69707000
376.10000000 2.69707000
376.20000000 2.69707000
376.30000000 2.69707000
376.40000000 2.69707000
376.50000000 2.69707000
376.60000000 2.69707000
376.70000000 2.69707000
376.80000000 2.69707000
376.90000000 2.69707000
377.00000000 2.69707000
377.10000000 2.69707000
377.20000000 2.69707000
377.30000000 2.69707000
377.40000000 2.69707000
377.50000000 2.69707000
377.60000000 2.69707000
377.70000000 2.69707000
377.80000000 2.69707000
377.90000000 2.69707000
378.00000000 2.69707000
378.10000000 2.69707000
378.20000000 2.69707000
378.30000000 2.69707000
378.40000000 2.69707000
378.50000000 2.69707000
378.60000000 2.69707000
378.70000000 2.69707000
378.80000000 2.69707000
378.90000000 2.69707000
379.00000000 2.69707000
379.10000000 2.69707000
379.20000000 2.69707000
379.30000000 2.69707000
379.40000000 2.69707000
379.50000000 2.69707000
379.60000000 2.69707000
379.70000000 2.69707000
379.80000000 2.69707000
379.90000000 2.69707000
380.00000000 2.69707000
380.10000000 2.69707000
380.20000000 2.69707000
380.30000000 2.69707000
380.40000000 2.69707000
380.50000000 2.69707000
380.60000000 2.69707000
380.70000000 2.69707000
380.80000000 2.69707000
380.90000000 2.69707000
381.00000000 2.69707000
381.10000000 2.69707000
381.20000000 2.69707000
381.30000000 2.69707000
381.40000000 2.69707000
381.50000000 2.69707000
381.60000000 2.69707000
381.70000000 2.69707000
381.80000000 2.69707000
381.90000000 2.69707000
382.00000000 2.69707000
382.10000000 2.69707000
382.20000000 2.69707000
382.30000000 2.69707000
382.40000000 2.69707000
382.50000000 2.69707000
382.60000000 2.69707000
382.70000000 2.69707000
382.80000000 2.69707000
382.90000000 2.69707000
383.00000000 2.69707000
383.10000000 2.69707000
383.20000000 2.69707000
383.30000000 2.69707000
383.40000000 2.69707000
383.50000000 2.69707000
383.60000000 2.69707000
383.70000000 2.69707000
383.80000000 2.69707000
383.90000000 2.69707000
384.00000000 2.69707000
384.10000000 2.69707000
384.20000000 2.69707000
384.30000000 2.69707000
384.40000000 2.69707000
384.50000000 2.69707000
384.60000000 2.69707000
384.70000000 2.69707000
384.80000000 2.69707000
384.90000000 2.69707000
385.00000000 2.69707000
385.10000000 2.69707000
385.20000000 2.69707000
385.30000000 2.69707000
385.40000000 2.69707000
385.50000000 2.69707000
385.60000000 2.69707000
385.70000000 2.69707000
385.80000000 2.69707000
385.90000000 2.69707000
386.00000000 2.69707000
386.10000000 2.69707000
386.20000000 2.69707000
386.30000000 2.69707000
386.40000000 2.69707000
386.50000000 2.69707000
386.60000000 2.69707000
386.70000000 2.69707000
386.80000000 2.69707000
386.90000000 2.69707000
387.00000000 2.69707000
387.10000000 2.69707000
387.20000000 2.69707000
387.30000000 2.69707000
387.40000000 2.69707000
387.50000000 2.69707000
387.60000000 2.69707000
387.70000000 2.69707000
387.80000000 2.69707000
387.90000000 2.69707000
388.00000000 2.69707000
388.10000000 2.69707000
388.20000000 2.69707000
388.30000000 2.69707000
388.40000000 2.69707000
388.50000000 2.69707000
388.60000000 2.69707000
388.70000000 2.69707000
388.80000000 2.69707000
388.90000000 2.69707000
389.00000000 2.69707000
389.10000000 2.69707000
389.20000000 2.69707000
389.30000000 2.69707000
389.40000000 2.69707000
389.50000000 2.69707000
389.60000000 2.69707000
389.70000000 2.69707000
389.80000000 2.69707000
389.90000000 2.69707000
390.00000000 2.69707000
390.10000000 2.69707000
390.20000000 2.69707000
390.30000000 2.69707000
390.40000000 2.69707000
390.50000000 2.69707000
390.60000000 2.69707000
390.70000000 2.69707000
390.80000000 2.69707000
390.90000000 2.69707000
391.00000000 2.69707000
391.10000000 2.69707000
391.20000000 2.69707000
391.30000000 2.69707000
391.40000000 2.69707000
391.50000000 2.69707000
391.60000000 2.69707000
391.70000000 2.69707000
391.80000000 2.69707000
391.90000000 2.69707000
392.00000000 2.69707000
392.10000000 2.69707000
392.20000000 2.69707000
392.30000000 2.69707000
392.40000000 2.69707000
392.50000000 2.69707000
392.60000000 2.69707000
392.70000000 2.69707000
392.80000000 2.69707000
392.90000000 2.69707000
393.00000000 2.69707000
393.10000000 2.69707000
393.20000000 2.69707000
393.30000000 2.69707000
393.40000000 2.69707000
393.50000000 2.69707000
393.60000000 2.69707000
393.70000000 2.69707000
393.80000000 2.69707000
393.90000000 2.69707000
394.00000000 2.69707000
394.10000000 2.69707000
394.20000000 2.69707000
394.30000000 2.69707000
394.40000000 2.71180000
394.50000000 2.71180000
394.60000000 2.71180000
394.70000000 2.71180000
394.80000000 2.71180000
394.90000000 2.71180000
395.00000000 2.71180000
395.10000000 2.71180000
395.20000000 2.71180000
395.30000000 2.71180000
395.40000000 2.71180000
395.50000000 2.71180000
395.60000000 2.71180000
395.70000000 2.71180000
395.80000000 2.71180000
395.90000000 2.71180000
396.00000000 2.71180000
396.10000000 2.71180000
396.20000000 2.71180000
396.30000000 2.71180000
396.40000000 2.71180000
396.50000000 2.71180000
396.60000000 2.71180000
396.70000000 2.71180000
396.80000000 2.71180000
396.90000000 2.71180000
397.00000000 2.71180000
397.10000000 2.71180000
397.20000000 2.71180000
397.30000000 2.71180000
397.40000000 2.71180000
397.50000000 2.71180000
397.60000000 2.71180000
397.70000000 2.71180000
397.80000000 2.71180000
397.90000000 2.71180000
398.00000000 2.71180000
398.10000000 2.71180000
398.20000000 2.71180000
398.30000000 2.71180000
398.40000000 2.71180000
398.50000000 2.71180000
398.60000000 2.71180000
398.70000000 2.71180000
398.80000000 2.71180000
398.90000000 2.71180000
399.00000000 2.71180000
399.10000000 2.71180000
399.20000000 2.71180000
399.30000000 2.71180000
399.40000000 2.71180000
399.50000000 2.71180000
399.60000000 2.71180000
399.70000000 2.71180000
399.80000000 2.71180000
399.90000000 2.71180000
